#Wave		#Intensity
2109.224609	2742.278076
2107.712891	2720.776611
2106.201172	2688.769531
2104.687500	2631.977539
2103.175781	2727.276611
2101.662109	2615.967285
2100.150391	2673.228271
2098.636719	2639.614502
2097.123047	2673.725342
2095.607422	2730.937012
2094.093750	2713.840088
2092.578125	2739.660889
2091.064453	2757.220459
2089.548828	2720.332764
2088.033203	2741.187500
2086.517578	2687.829346
2085.000000	2677.358643
2083.484375	2713.043457
2081.966797	2691.036377
2080.449219	2728.350586
2078.931641	2691.524902
2077.414063	2769.994141
2075.894531	2660.729736
2074.376953	2770.448486
2072.857422	2738.582520
2071.337891	2659.013184
2069.818359	2658.441406
2068.298828	2743.395508
2066.777344	2723.073730
2065.257813	2806.333496
2063.736328	2762.995361
2062.214844	2757.472168
2060.693359	2707.591553
2059.171875	2741.504883
2057.648438	2699.860352
2056.126953	2779.734131
2054.603516	2731.532959
2053.080078	2726.023682
2051.556641	2792.713623
2050.033203	2769.147949
2048.507813	2683.267334
2046.984375	2726.966553
2045.458984	2834.585205
2043.933594	2711.046631
2042.408203	2769.460449
2040.882813	2765.590820
2039.355469	2781.378906
2037.830078	2767.682373
2036.302734	2806.385986
2034.775391	2709.203613
2033.248047	2815.005127
2031.718750	2775.132324
2030.191406	2774.539063
2028.662109	2837.733643
2027.134766	2848.573730
2025.605469	2877.392822
2024.076172	2765.629883
2022.544922	2729.086914
2021.015625	2761.180664
2019.484375	2778.559326
2017.955078	2808.995850
2016.423828	2700.632080
2014.892578	2706.585449
2013.359375	2750.074463
2011.828125	2769.068604
2010.294922	2799.474365
2008.761719	2717.324951
2007.230469	2760.774414
2005.695313	2735.730469
2004.162109	2761.227295
2002.628906	2788.342773
2001.093750	2707.912354
1999.558594	2818.104980
1998.023438	2791.446777
1996.488281	2759.915039
1994.953125	2819.560303
1993.417969	2783.153320
1991.880859	2878.567139
1990.343750	2772.207031
1988.806641	2779.749512
1987.269531	2857.215088
1985.732422	2767.185791
1984.193359	2838.118896
1982.656250	2740.006104
1981.117188	2786.542725
1979.578125	2837.932861
1978.039063	2897.421631
1976.500000	2844.844971
1974.958984	2785.796875
1973.417969	2845.258789
1971.878906	2826.803955
1970.337891	2824.581055
1968.796875	2869.398193
1967.253906	2781.216797
1965.712891	2874.664551
1964.169922	2848.117920
1962.626953	2922.063721
1961.083984	2811.261230
1959.541016	2823.624268
1957.998047	2824.644531
1956.455078	2830.522217
1954.910156	2889.822510
1953.365234	2911.869873
1951.820313	2793.118896
1950.275391	2876.657959
1948.730469	2778.993408
1947.183594	2836.624268
1945.638672	2897.464355
1944.091797	2867.752197
1942.544922	2820.274170
1940.998047	3003.884277
1939.449219	2864.312988
1937.902344	2828.171875
1936.353516	2992.285400
1934.804688	2901.239746
1933.255859	2869.956299
1931.707031	2849.982422
1930.158203	2870.353516
1928.607422	2813.286133
1927.058594	2870.750488
1925.507813	2899.166260
1923.957031	2892.103760
1922.406250	2952.738037
1920.853516	2984.341309
1919.302734	2870.934082
1917.750000	2831.668701
1916.197266	2942.186279
1914.644531	2896.481934
1913.091797	2871.723389
1911.539063	2848.584229
1909.984375	2894.643311
1908.431641	2828.074463
1906.876953	2956.143799
1905.322266	2884.766113
1903.767578	2921.132080
1902.210938	2891.582275
1900.656250	2881.328613
1899.099609	2859.832764
1897.542969	2833.526855
1895.986328	2991.918457
1894.429688	2954.356201
1892.873047	2860.624756
1891.314453	2892.118896
1889.755859	2901.135010
1888.199219	2929.398438
1886.640625	2901.512207
1885.080078	2921.745361
1883.521484	2905.095215
1881.960938	2986.229736
1880.402344	2924.700684
1878.841797	2954.525146
1877.281250	2963.511963
1875.720703	2860.385742
1874.158203	2965.461914
1872.597656	2953.629150
1871.035156	2925.795654
1869.472656	2934.778564
1867.910156	2871.763672
1866.347656	2999.119385
1864.783203	2953.708252
1863.220703	2893.926514
1861.656250	2864.541748
1860.091797	2894.302002
1858.527344	2959.202148
1856.962891	2931.419434
1855.396484	2903.648438
1853.832031	3029.184570
1852.265625	3017.369141
1850.699219	2991.193359
1849.132813	2977.795166
1847.566406	2965.997803
1845.998047	2936.658691
1844.431641	3044.485352
1842.863281	2952.957764
1841.294922	2977.840088
1839.726563	3034.587891
1838.156250	2962.241455
1836.587891	2950.463867
1835.017578	3010.366699
1833.449219	3047.949707
1831.878906	3056.858887
1830.306641	3027.561279
1828.736328	3017.373291
1827.166016	2989.687500
1825.593750	3052.686768
1824.021484	2962.978027
1822.449219	2998.924561
1820.876953	3077.779297
1819.304688	3035.804443
1817.730469	2973.188721
1816.158203	3079.007568
1814.583984	3119.656250
1813.009766	3096.764404
1811.435547	3045.302490
1809.859375	3125.617432
1808.285156	3024.971436
1806.708984	3030.679688
1805.132813	3014.175781
1803.556641	3040.502441
1801.980469	3076.332275
1800.404297	3107.390625
1798.826172	3090.883789
1797.248047	3020.502686
1795.671875	3216.330322
1794.093750	3073.085449
1792.513672	3107.278320
1790.935547	3103.455322
1789.355469	3058.474121
1787.777344	3103.727295
1786.197266	3046.105713
1784.617188	3007.492920
1783.035156	3120.741699
1781.455078	3058.408447
1779.873047	3111.518311
1778.292969	3087.150146
1776.710938	3168.678223
1775.128906	3111.126953
1773.544922	3154.701660
1771.962891	3144.559082
1770.378906	3079.153564
1768.794922	3061.136963
1767.212891	3123.625732
1765.626953	3163.995117
1764.042969	3051.308350
1762.458984	3140.574707
1760.873047	3136.756836
1759.287109	3183.395508
1757.701172	3258.389404
1756.115234	3048.085693
1754.529297	3159.317383
1752.941406	3191.732910
1751.355469	3035.127930
1749.767578	3166.762939
1748.179688	3189.709229
1746.591797	3222.090088
1745.001953	3185.213135
1743.414063	3143.631592
1741.824219	3174.428223
1740.234375	3139.156982
1738.644531	3212.395508
1737.054688	3219.576416
1735.462891	3185.889404
1733.873047	3210.357910
1732.281250	3220.676270
1730.689453	3362.931396
1729.097656	3258.573730
1727.505859	3276.725098
1725.912109	3254.055664
1724.320313	3248.658936
1722.726563	3282.491211
1721.132813	3193.947266
1719.539063	3245.028809
1717.945313	3281.975586
1716.349609	3284.416504
1714.755859	3285.288818
1713.160156	3348.843506
1711.564453	3229.062012
1709.968750	3323.929443
1708.371094	3323.225830
1706.775391	3231.708496
1705.177734	3254.505371
1703.580078	3281.987793
1701.982422	3353.271484
1700.384766	3250.873535
1698.787109	3225.159424
1697.187500	3365.214844
1695.587891	3339.487061
1693.990234	3260.624512
1692.390625	3311.504883
1690.789063	3345.176758
1689.189453	3378.833984
1687.587891	3345.320557
1685.988281	3349.295898
1684.386719	3307.996826
1682.785156	3302.613281
1681.181641	3340.924072
1679.580078	3337.095459
1677.976563	3336.387695
1676.373047	3362.190918
1674.769531	3433.197510
1673.166016	3440.263184
1671.562500	3381.870117
1669.957031	3382.710693
1668.353516	3346.163574
1666.748047	3462.263916
1665.142578	3463.086182
1663.537109	3487.260254
1661.929688	3410.252197
1660.324219	3445.319580
1658.716797	3531.714111
1657.109375	3537.186035
1655.501953	3565.982910
1653.894531	3532.574219
1652.285156	3533.378174
1650.677734	3576.144287
1649.068359	3674.830322
1647.458984	3698.905518
1645.849609	3836.352539
1644.240234	3737.707520
1642.628906	3840.931885
1641.019531	3804.415039
1639.408203	3837.747070
1637.796875	3863.306885
1636.185547	3843.871094
1634.572266	3892.681396
1632.960938	3907.358643
1631.347656	3963.885254
1629.734375	3947.542969
1628.121094	3976.144531
1626.507813	3938.116943
1624.894531	4037.956543
1623.279297	3984.446045
1621.664063	4016.110596
1620.048828	4061.692627
1618.433594	4053.089844
1616.818359	4213.139648
1615.203125	4266.384277
1613.585938	4284.034180
1611.968750	4436.200684
1610.351563	4439.893066
1608.734375	4533.228027
1607.117188	4611.070313
1605.498047	4650.255859
1603.878906	4656.987305
1602.261719	4727.031250
1600.640625	4749.182129
1599.021484	4846.960938
1597.402344	4759.502930
1595.781250	4652.022949
1594.162109	4641.774414
1592.541016	4633.072754
1590.919922	4562.694824
1589.296875	4535.513184
1587.675781	4426.652832
1586.052734	4388.724121
1584.429688	4527.986328
1582.806641	4459.244629
1581.183594	4416.712402
1579.560547	4438.863770
1577.935547	4453.308594
1576.312500	4429.271484
1574.687500	4363.700195
1573.062500	4468.913574
1571.435547	4429.507813
1569.810547	4397.806641
1568.183594	4386.104492
1566.558594	4392.851074
1564.931641	4456.453125
1563.304688	4406.335449
1561.675781	4394.640137
1560.048828	4258.556152
1558.419922	4289.887695
1556.791016	4241.382324
1555.162109	4303.397949
1553.533203	4248.771973
1551.904297	4258.600586
1550.273438	4231.614258
1548.642578	4238.375000
1547.011719	4199.139160
1545.380859	4138.461426
1543.750000	4284.687988
1542.119141	4170.393066
1540.486328	4276.723145
1538.853516	4214.547852
1537.220703	4183.021484
1535.587891	4114.769043
1533.955078	4181.226563
1532.320313	4241.534668
1530.685547	4118.239258
1529.052734	4172.416504
1527.416016	4121.058594
1525.781250	4112.529297
1524.146484	3972.552979
1522.509766	4089.368164
1520.873047	4047.238037
1519.236328	3983.740234
1517.599609	4069.933105
1515.962891	4052.262695
1514.324219	4086.501465
1512.687500	4044.415283
1511.048828	4002.346924
1509.410156	4004.536865
1507.771484	3898.435547
1506.130859	3896.071777
1504.492188	3931.822266
1502.851563	3935.548584
1501.210938	3847.838867
1499.570313	3872.910889
1497.927734	3780.682129
1496.287109	3839.260986
1494.644531	3762.304443
1493.001953	3772.149414
1491.359375	3740.897705
1489.716797	3784.217529
1488.074219	3762.103516
1486.429688	3735.436035
1484.785156	3681.408691
1483.140625	3720.141846
1481.496094	3696.539551
1479.851563	3675.986572
1478.207031	3701.020996
1476.560547	3724.525391
1474.914063	3708.534668
1473.267578	3719.879883
1471.621094	3713.004395
1469.972656	3731.931641
1468.326172	3690.156982
1466.677734	3769.760498
1465.029297	3734.061768
1463.380859	3710.509033
1461.732422	3750.638916
1460.082031	3740.733398
1458.431641	3718.708740
1456.783203	3734.569336
1455.132813	3685.290283
1453.480469	3779.898438
1451.830078	3662.497559
1450.177734	3788.857178
1448.527344	3689.665527
1446.875000	3737.284424
1445.220703	3778.831055
1443.568359	3738.689209
1441.916016	3790.801514
1440.261719	3762.767822
1438.607422	3752.883057
1436.953125	3764.157715
1435.298828	3724.060791
1433.642578	3697.574951
1431.988281	3687.711670
1430.332031	3712.577393
1428.675781	3672.525146
1427.019531	3671.727295
1425.361328	3609.068604
1423.705078	3674.657471
1422.046875	3601.467529
1420.388672	3713.771484
1418.730469	3705.426514
1417.072266	3716.677979
1415.412109	3739.979004
1413.753906	3754.230225
1412.093750	3753.413330
1410.433594	3707.420654
1408.773438	3691.558350
1407.111328	3770.530029
1405.451172	3718.543213
1403.789063	3806.501465
1402.126953	3790.629883
1400.464844	3831.912598
1398.802734	3918.283936
1397.138672	3912.920166
1395.474609	3806.863281
1393.812500	3887.172119
1392.146484	3904.351074
1390.482422	3885.476074
1388.818359	3964.212646
1387.152344	3889.785156
1385.486328	4096.065430
1383.820313	4068.159912
1382.154297	4026.763672
1380.488281	3995.884766
1378.820313	4132.977539
1377.154297	4067.604004
1375.486328	4098.193359
1373.818359	4098.795410
1372.148438	4111.383789
1370.480469	4014.613281
1368.810547	4170.989258
1367.140625	4068.257568
1365.470703	4098.804199
1363.800781	4112.873535
1362.130859	4007.228027
1360.458984	3956.981445
1358.787109	4177.477539
1357.115234	4116.747070
1355.443359	4118.834961
1353.771484	4168.751953
1352.097656	4131.972656
1350.423828	4001.083252
1348.751953	4013.649170
1347.076172	4024.715576
1345.402344	4031.297363
1343.728516	4112.513672
1342.052734	4087.731689
1340.376953	4100.262695
1338.701172	4160.523926
1337.025391	4085.038086
1335.347656	4172.115723
1333.671875	4133.928711
1331.994141	4086.815918
1330.316406	4015.881348
1328.638672	4064.161133
1326.960938	4140.719238
1325.281250	4065.350830
1323.601563	4177.605469
1321.921875	4102.261719
1320.242188	4128.145020
1318.562500	4023.087646
1316.880859	4101.038574
1315.201172	4101.622070
1313.519531	4044.217773
1311.837891	4070.083496
1310.154297	4081.075439
1308.472656	4121.779297
1306.789063	4135.725098
1305.105469	4246.203125
1303.421875	4071.534912
1301.738281	4066.182373
1300.054688	4089.031982
1298.369141	4048.063721
1296.683594	4112.446289
1294.998047	4012.160400
1293.312500	3954.922852
1291.626953	3988.147949
1289.939453	3982.819336
1288.253906	3970.082764
1286.566406	3973.649170
1284.878906	4023.133057
1283.189453	3934.866943
1281.501953	3834.794678
1279.812500	3943.486572
1278.123047	3908.574219
1276.433594	3855.921143
1274.744141	3866.900879
1273.052734	3888.228516
1271.363281	3950.948242
1269.671875	3811.110107
1267.980469	3783.660889
1266.289063	3813.852295
1264.595703	3830.734131
1262.904297	3714.677246
1261.210938	3688.748779
1259.517578	3808.990723
1257.824219	3847.997314
1256.128906	3783.687256
1254.435547	3753.339111
1252.740234	3801.181152
1251.044922	3742.822266
1249.349609	3789.170410
1247.652344	3686.617432
1245.957031	3828.749023
1244.259766	3743.913086
1242.562500	3667.953125
1240.865234	3770.228516
1239.167969	3841.537354
1237.468750	3705.249512
1235.769531	3680.875732
1234.072266	3681.527100
1232.371094	3617.448730
1230.671875	3623.996094
1228.972656	3561.429199
1227.271484	3556.224365
1225.570313	3631.860107
1223.869141	3578.148926
1222.167969	3484.794434
1220.464844	3636.772705
1218.763672	3662.393066
1217.060547	3533.845703
1215.357422	3569.751709
1213.654297	3545.474121
1211.949219	3562.287598
1210.246094	3529.220703
1208.541016	3644.285889
1206.835938	3661.064941
1205.130859	3551.772217
1203.423828	3558.305176
1201.718750	3525.274170
1200.011719	3527.414551
1198.304688	3536.876465
1196.597656	3527.298828
1194.888672	3529.436279
1193.181641	3541.817139
1191.472656	3542.486572
1189.763672	3519.748535
1188.054688	3529.197266
1186.343750	3528.405518
1184.634766	3549.542725
1182.923828	3564.823486
1181.212891	3602.016113
1179.501953	3601.207275
1177.791016	3596.016602
1176.078125	3567.463623
1174.365234	3559.362061
1172.652344	3615.487549
1170.939453	3459.989502
1169.226563	3491.308594
1167.511719	3376.749512
1165.798828	3441.614014
1164.083984	3445.213379
1162.369141	3432.776855
1160.652344	3382.454834
1158.937500	3320.499268
1157.220703	3302.271240
1155.503906	3380.169922
1153.787109	3276.031250
1152.070313	3243.267578
1150.351563	3299.295410
1148.632813	3267.995850
1146.916016	3178.521973
1145.195313	3224.344727
1143.476563	3172.725586
1141.757813	3196.722656
1140.037109	3145.132324
1138.316406	3170.577148
1136.595703	3210.537598
1134.875000	3241.765137
1133.152344	3133.578857
1131.429688	3221.427246
1129.708984	3248.275879
1127.984375	3278.014160
1126.261719	3301.935791
1124.539063	3196.757324
1122.814453	3152.530762
1121.089844	3180.812744
1119.365234	3164.148682
1117.640625	3112.712891
1115.914063	3155.471436
1114.187500	3096.818115
1112.462891	3120.734619
1110.734375	3179.387207
1109.007813	3013.653809
1107.281250	3053.490479
1105.552734	3064.372559
1103.824219	3044.872803
1102.095703	3057.197266
1100.367188	3138.916260
1098.636719	3065.927979
1096.908203	3086.909424
1095.177734	3071.759766
1093.447266	3058.061035
1091.714844	3116.578125
1089.984375	3091.323975
1088.251953	3055.976074
1086.519531	3020.644043
1084.787109	3076.229492
1083.054688	3110.150879
1081.320313	3087.809814
1079.585938	3130.363770
1077.851563	3112.352295
1076.117188	3144.791992
1074.382813	3136.871094
1072.648438	3154.884033
1070.912109	3102.315918
1069.175781	3029.612305
1067.439453	3099.461914
1065.701172	3123.222656
1063.964844	3049.124023
1062.226563	3097.341553
1060.488281	3112.455811
1058.750000	3047.037109
1057.011719	3039.153320
1055.271484	3068.642578
1053.531250	3024.832520
1051.791016	2995.408447
1050.050781	3090.957275
1048.310547	3015.579346
1046.568359	3062.266602
1044.826172	3068.743164
1043.083984	2991.985840
1041.341797	2956.869141
1039.599609	2983.445068
1037.855469	3057.331299
1036.113281	2960.573975
1034.369141	3011.497070
1032.623047	3078.160156
1030.878906	2991.492432
1029.132813	2927.782227
1027.386719	3043.107422
1025.640625	2972.255371
1023.894531	3013.084229
1022.148438	2982.340820
1020.400391	2940.165283
1018.652344	3008.150391
1016.904297	2927.375488
1015.156250	2981.033936
1013.406250	2977.490723
1011.658203	2961.086670
1009.908203	2981.838135
1008.158203	2965.440186
1006.408203	2953.333740
1004.656250	2958.365967
1002.904297	2984.807617
1001.152344	2927.036133
999.400391	2979.154297
997.648438	2929.968994
995.896484	2865.118408
994.142578	2821.684570
992.388672	2870.926758
990.634766	2978.577637
988.878906	2962.218506
987.125000	2977.205566
985.369141	2901.038330
983.613281	2886.131348
981.857422	2871.230957
980.099609	2933.189209
978.343750	2949.586914
976.585938	2930.413574
974.828125	2941.115234
973.070313	2958.920898
971.310547	2847.357178
969.552734	2963.239746
967.792969	2932.716797
966.033203	2863.852295
964.273438	2867.451416
962.511719	2875.308350
960.750000	2864.706787
958.990234	2933.587646
957.226563	2816.557861
955.464844	2815.906494
953.703125	2786.889893
951.939453	2895.426270
950.175781	2904.679443
948.412109	2881.330566
946.648438	2863.660156
944.882813	2827.581299
943.117188	2826.926514
941.351563	2819.191650
939.585938	2890.736084
937.820313	2833.453613
936.052734	2875.246338
934.285156	2867.506348
932.517578	2810.268311
930.750000	2822.342529
928.982422	2848.547363
927.212891	2818.206299
925.443359	2783.639893
923.673828	2843.739014
921.904297	2776.697998
920.132813	2819.826172
918.361328	2807.877441
916.591797	2756.415527
914.818359	2826.327393
913.046875	2855.295654
911.275391	2784.112305
909.501953	2780.644775
907.728516	2823.699707
905.955078	2758.210205
904.179688	2782.931885
902.406250	2754.109131
900.630859	2849.240967
898.855469	2817.599609
897.080078	2849.322266
895.302734	2823.324707
893.525391	2822.666992
891.750000	2890.941650
889.970703	2841.041992
888.193359	2938.808838
886.416016	2813.007568
884.636719	2809.540527
882.857422	2745.653809
881.078125	2825.087891
879.296875	2780.889648
877.517578	2785.857422
875.736328	2754.322754
873.955078	2825.258545
872.173828	2750.230469
870.390625	2743.976807
868.609375	2760.166016
866.826172	2731.477295
865.042969	2737.848389
863.259766	2700.768555
861.474609	2751.981934
859.689453	2724.721680
857.904297	2675.065186
856.119141	2696.843018
854.333984	2700.411865
852.546875	2634.000000
850.761719	2696.349854
848.974609	2687.325195
847.185547	2665.717041
845.398438	2674.880615
843.609375	2728.773926
841.822266	2640.085205
840.031250	2686.974365
838.242188	2616.496826
836.453125	2695.491455
834.662109	2618.062988
832.871094	2638.388916
831.080078	2604.274658
829.289063	2649.709229
827.496094	2688.147461
825.703125	2649.860840
823.910156	2579.522217
822.117188	2638.859131
820.324219	2610.365967
818.529297	2658.520508
816.734375	2532.523682
814.939453	2608.527588
813.144531	2613.484131
811.347656	2640.710938
809.550781	2592.771973
807.755859	2587.988525
805.957031	2672.235107
804.160156	2600.679199
802.361328	2602.848389
800.564453	2573.044434
798.765625	2673.891357
796.964844	2584.338623
795.166016	2614.290771
793.365234	2587.288818
791.564453	2613.060303
789.763672	2555.531982
787.962891	2577.135010
786.160156	2620.927002
784.359375	2527.371094
