#Wave		#Intensity
1585.210938	11461.697266
1584.209961	11394.260742
1583.208984	11511.761719
1582.208008	11312.144531
1581.206055	11207.460938
1580.204102	11237.582031
1579.202148	11157.907227
1578.200195	11163.079102
1577.198242	11140.814453
1576.195313	11208.325195
1575.192383	10989.113281
1574.189453	11118.938477
1573.186523	11243.724609
1572.182617	11206.515625
1571.178711	11184.267578
1570.174805	11209.345703
1569.170898	11361.397461
1568.166992	11349.086914
1567.162109	11282.026367
1566.158203	11217.481445
1565.153320	11347.013672
1564.147461	11292.429688
1563.142578	11471.627930
1562.136719	11277.808594
1561.130859	11454.449219
1560.125000	11591.251953
1559.119141	11802.540039
1558.113281	11703.210938
1557.106445	11720.657227
1556.099609	11859.772461
1555.092773	12286.822266
1554.084961	12259.456055
1553.078125	12306.551758
1552.070313	12400.767578
1551.062500	12239.440430
1550.054688	12368.352539
1549.045898	12410.423828
1548.038086	12368.189453
1547.029297	12162.384766
1546.020508	12115.261719
1545.011719	12122.664063
1544.001953	11822.909180
1542.992188	11790.743164
1541.982422	11718.973633
1540.972656	11540.786133
1539.962891	11560.671875
1538.952148	11328.152344
1537.942383	11521.250000
1536.931641	11447.134766
1535.919922	11373.048828
1534.909180	11264.379883
1533.897461	11190.362305
1532.886719	11101.546875
1531.874023	10938.639648
1530.862305	10946.256836
1529.850586	10973.628906
1528.837891	10946.663086
1527.825195	10939.458984
1526.812500	10971.750000
1525.799805	10991.689453
1524.786133	10838.907227
1523.772461	10955.069336
1522.758789	10992.261719
1521.745117	10893.819336
1520.731445	10963.056641
1519.716797	10970.645508
1518.702148	11042.301758
1517.687500	10985.812500
1516.672852	11050.044922
1515.657227	11242.311523
1514.642578	11079.939453
1513.626953	11085.029297
1512.610352	10942.446289
1511.594727	11274.832031
1510.579102	11048.622070
1509.562500	11115.204102
1508.545898	11031.750000
1507.529297	10992.584961
1506.511719	11027.179688
1505.494141	11174.810547
1504.477539	11032.440430
1503.458984	10990.849609
1502.441406	11246.462891
1501.423828	11123.809570
1500.405273	11428.389648
1499.386719	11067.654297
1498.368164	11350.033203
1497.348633	11372.216797
1496.330078	11399.296875
1495.310547	11541.634766
1494.291016	11622.612305
1493.271484	11590.785156
1492.250977	11693.777344
1491.231445	11480.610352
1490.210938	11461.081055
1489.190430	11358.277344
1488.168945	11417.147461
1487.148438	11537.205078
1486.126953	11400.174805
1485.105469	11402.707031
1484.083984	11432.153320
1483.061523	11623.052734
1482.040039	11542.373047
1481.017578	11652.470703
1479.995117	11801.639648
1478.971680	11889.635742
1477.949219	11933.605469
1476.925781	12158.367188
1475.902344	12177.832031
1474.878906	12629.590820
1473.855469	12482.900391
1472.831055	12707.359375
1471.806641	12748.659180
1470.782227	13175.519531
1469.757813	13316.737305
1468.733398	13579.864258
1467.708008	13742.888672
1466.682617	14032.638672
1465.657227	14468.537109
1464.631836	15174.796875
1463.605469	15235.005859
1462.579102	15475.475586
1461.552734	15628.156250
1460.526367	16299.492188
1459.500000	16498.197266
1458.472656	16482.601563
1457.445313	16418.335938
1456.417969	16305.429688
1455.390625	15849.548828
1454.362305	15695.457031
1453.334961	15232.593750
1452.306641	14932.817383
1451.277344	14667.194336
1450.249023	14399.250977
1449.219727	13898.162109
1448.191406	13385.134766
1447.162109	13375.068359
1446.131836	13124.610352
1445.102539	13218.993164
1444.072266	12684.684570
1443.041992	12830.079102
1442.011719	12710.955078
1440.981445	12650.096680
1439.950195	12635.341797
1438.918945	12344.175781
1437.887695	12489.487305
1436.856445	12477.196289
1435.825195	12103.854492
1434.792969	12207.936523
1433.760742	12123.043945
1432.728516	11980.066406
1431.696289	12248.747070
1430.663086	11936.353516
1429.629883	11575.685547
1428.596680	11740.235352
1427.563477	11493.458008
1426.530273	11708.747070
1425.496094	11483.840820
1424.461914	11619.257813
1423.427734	11384.793945
1422.393555	11351.007813
1421.358398	11532.273438
1420.323242	11160.280273
1419.288086	11256.977539
1418.252930	11324.659180
1417.217773	11138.828125
1416.181641	11315.118164
1415.145508	11351.372070
1414.109375	11385.198242
1413.073242	11368.354492
1412.036133	11558.916992
1411.000000	11773.510742
1409.962891	11925.337891
1408.924805	12274.731445
1407.887695	12395.064453
1406.849609	12686.393555
1405.812500	13216.053711
1404.773438	13516.721680
1403.735352	13882.268555
1402.697266	14120.085938
1401.658203	14687.507813
1400.619141	14768.660156
1399.580078	14828.126953
1398.540039	14954.910156
1397.500977	14824.348633
1396.460938	14717.880859
1395.420898	14657.125000
1394.380859	14658.874023
1393.339844	14422.764648
1392.298828	14174.742188
1391.257813	14056.508789
1390.216797	13861.488281
1389.175781	13781.776367
1388.133789	13889.304688
1387.091797	13893.604492
1386.049805	14214.580078
1385.007813	14648.155273
1383.964844	14983.226563
1382.922852	15521.952148
1381.879883	15854.301758
1380.835938	16200.891602
1379.792969	16959.460938
1378.749023	17209.849609
1377.706055	17323.613281
1376.661133	17722.283203
1375.617188	17687.457031
1374.573242	17868.066406
1373.528320	17878.689453
1372.483398	17657.226563
1371.438477	17232.529297
1370.392578	17185.878906
1369.347656	16771.019531
1368.301758	16232.023438
1367.255859	16075.663086
1366.208984	15613.501953
1365.163086	15474.057617
1364.116211	15138.807617
1363.069336	15025.789063
1362.022461	14566.616211
1360.974609	14639.954102
1359.927734	14445.963867
1358.879883	14562.243164
1357.832031	14430.373047
1356.783203	14484.593750
1355.735352	14352.792969
1354.686523	14497.599609
1353.637695	14844.950195
1352.588867	15103.979492
1351.539063	15131.788086
1350.490234	15564.539063
1349.440430	16368.634766
1348.390625	16798.560547
1347.339844	17137.843750
1346.290039	17724.513672
1345.239258	18663.115234
1344.188477	19144.535156
1343.137695	19885.019531
1342.085938	20235.183594
1341.034180	20737.367188
1339.982422	21365.322266
1338.930664	21743.472656
1337.878906	21795.935547
1336.826172	21895.886719
1335.773438	22202.429688
1334.720703	22169.273438
1333.667969	22064.906250
1332.614258	21704.232422
1331.561523	21312.857422
1330.507813	21135.181641
1329.453125	20990.787109
1328.399414	20303.353516
1327.344727	20130.738281
1326.290039	19631.050781
1325.235352	19247.705078
1324.180664	18819.498047
1323.125000	18614.166016
1322.070313	18269.171875
1321.014648	17786.968750
1319.958008	17780.861328
1318.902344	17242.150391
1317.845703	17321.355469
1316.789063	16697.783203
1315.732422	16147.809570
1314.675781	15926.818359
1313.618164	15809.963867
1312.560547	15402.367188
1311.502930	15375.488281
1310.445313	14826.364258
1309.386719	14641.318359
1308.329102	14399.657227
1307.270508	14207.692383
1306.210938	13869.415039
1305.152344	13906.623047
1304.092773	13441.101563
1303.033203	13379.277344
1301.973633	13105.153320
1300.914063	13083.520508
1299.853516	12906.256836
1298.792969	12797.440430
1297.732422	12761.740234
1296.671875	12638.857422
1295.611328	12537.231445
1294.549805	12289.594727
1293.488281	12352.946289
1292.426758	12119.580078
1291.364258	12079.354492
1290.302734	11959.119141
1289.240234	12135.436523
1288.177734	11921.130859
1287.114258	12139.719727
1286.051758	12111.286133
1284.988281	11927.684570
1283.924805	12317.732422
1282.861328	12319.830078
1281.796875	12507.552734
1280.732422	12838.498047
1279.667969	13131.722656
1278.603516	13236.964844
1277.539063	13346.855469
1276.473633	13707.853516
1275.408203	14113.286133
1274.342773	14290.960938
1273.277344	14466.212891
1272.210938	14113.708984
1271.145508	14185.752930
1270.079102	14114.765625
1269.011719	13994.588867
1267.945313	13490.166016
1266.877930	13538.849609
1265.810547	13095.634766
1264.743164	12893.808594
1263.674805	12457.939453
1262.607422	12223.561523
1261.539063	12141.401367
1260.470703	11939.944336
1259.401367	11577.161133
1258.333008	11614.465820
1257.263672	11448.321289
1256.194336	11462.256836
1255.125000	11118.577148
1254.054688	11153.606445
1252.985352	11268.055664
1251.915039	11134.857422
1250.843750	11027.403320
1249.773438	10952.681641
1248.702148	11104.421875
1247.630859	11027.379883
1246.559570	11022.704102
1245.488281	10859.395508
1244.416016	11113.645508
1243.343750	10976.036133
1242.271484	10910.755859
1241.199219	10950.391602
1240.125977	10901.456055
1239.053711	10996.991211
1237.980469	10994.652344
1236.906250	11101.770508
1235.833008	10978.332031
1234.758789	11052.815430
1233.684570	10924.783203
1232.610352	11264.511719
1231.536133	10913.152344
1230.460938	11022.471680
1229.385742	11057.331055
1228.310547	11285.141602
1227.235352	11159.542969
1226.159180	11087.447266
1225.083008	11154.786133
1224.006836	10980.511719
1222.930664	10787.730469
1221.853516	11091.925781
1220.777344	11059.381836
1219.700195	10882.951172
1218.622070	10959.524414
1217.544922	10787.828125
1216.466797	10947.888672
1215.388672	11042.948242
1214.310547	11042.909180
1213.232422	11151.814453
1212.153320	11098.448242
1211.074219	11070.590820
1209.995117	11133.086914
1208.916016	11137.656250
1207.835938	11380.719727
1206.755859	11230.125977
1205.675781	11155.975586
1204.595703	11114.251953
1203.514648	11313.151367
1202.434570	11407.878906
1201.353516	11181.122070
1200.271484	11285.083984
1199.190430	11391.311523
1198.108398	11203.989258
1197.026367	11037.541016
1195.944336	11044.417969
1194.862305	10868.834961
1193.779297	10751.052734
1192.696289	10824.932617
1191.613281	10490.249023
1190.530273	10471.848633
1189.446289	10554.965820
1188.362305	10557.316406
1187.278320	10365.952148
1186.194336	10336.061523
1185.109375	10179.402344
1184.024414	10110.383789
1182.939453	9953.837891
1181.854492	9930.969727
1180.768555	9859.744141
1179.683594	9885.258789
1178.597656	9908.459961
1177.510742	9818.869141
1176.424805	9835.169922
1175.337891	9828.455078
1174.250977	9863.146484
1173.164063	9713.847656
1172.077148	9771.538086
1170.989258	9882.073242
1169.901367	9686.900391
1168.813477	9719.282227
1167.724609	9737.867188
1166.636719	9703.618164
1165.547852	9731.380859
1164.458984	9784.384766
1163.369141	9720.306641
1162.280273	9816.888672
1161.190430	9745.947266
1160.100586	9789.723633
1159.010742	9753.215820
1157.919922	9751.114258
1156.829102	9781.105469
1155.738281	9636.907227
1154.647461	9951.026367
1153.555664	9724.384766
1152.464844	10015.445313
1151.373047	10136.934570
1150.280273	10061.490234
1149.188477	10045.585938
1148.095703	10164.699219
1147.002930	10137.339844
1145.910156	10318.137695
1144.817383	10283.894531
1143.723633	10286.246094
1142.629883	10204.020508
1141.536133	10290.945313
1140.441406	10201.896484
1139.347656	10083.189453
1138.252930	10033.048828
1137.158203	10181.583008
1136.062500	9987.619141
1134.967773	10158.921875
1133.872070	10298.202148
1132.776367	10083.803711
1131.679688	10047.408203
1130.583984	10090.841797
1129.487305	10006.581055
1128.390625	10015.811523
1127.292969	10072.895508
1126.196289	10182.357422
1125.098633	10084.478516
1124.000977	10020.802734
1122.903320	10050.508789
1121.804688	10021.012695
1120.706055	9996.081055
1119.607422	10182.778320
1118.508789	10085.021484
1117.409180	9996.403320
1116.310547	9991.960938
1115.210938	9948.870117
1114.110352	9976.260742
1113.010742	9965.004883
1111.910156	9994.650391
1110.809570	9969.764648
1109.708984	9844.963867
1108.607422	9847.366211
1107.506836	9802.096680
1106.405273	9781.810547
1105.303711	9752.455078
1104.201172	9793.438477
1103.098633	9707.390625
1101.996094	9639.519531
1100.893555	9696.368164
1099.791016	9605.861328
1098.687500	9662.690430
1097.583984	9406.838867
1096.480469	9561.084961
1095.376953	9497.859375
1094.272461	9640.696289
1093.167969	9695.187500
1092.063477	9426.024414
1090.958008	9414.919922
1089.853516	9485.258789
1088.748047	9401.771484
1087.642578	9352.237305
1086.536133	9438.365234
1085.430664	9438.567383
1084.324219	9547.234375
1083.217773	9662.630859
1082.110352	9448.204102
1081.003906	9362.587891
1079.896484	9489.235352
1078.789063	9523.279297
1077.680664	9539.254883
1076.573242	9390.515625
1075.464844	9593.738281
1074.356445	9463.092773
1073.247070	9517.394531
1072.138672	9474.737305
1071.029297	9447.875000
1069.919922	9621.567383
1068.809570	9529.351563
1067.700195	9500.239258
1066.589844	9741.357422
1065.479492	9442.051758
1064.368164	9606.547852
1063.257813	9629.199219
1062.146484	9543.846680
1061.035156	9368.557617
1059.922852	9584.645508
1058.811523	9562.311523
1057.699219	9465.805664
1056.586914	9445.752930
1055.473633	9439.189453
1054.361328	9533.715820
1053.248047	9549.592773
1052.134766	9428.492188
1051.021484	9334.382813
1049.907227	9592.689453
1048.792969	9323.556641
1047.678711	9523.420898
1046.564453	9528.059570
1045.449219	9597.727539
1044.333984	9653.911133
1043.218750	9817.661133
1042.103516	9728.106445
1040.987305	9714.766602
1039.871094	9752.953125
1038.754883	9759.767578
1037.638672	9674.779297
1036.521484	10001.714844
1035.404297	9818.235352
1034.287109	10004.030273
1033.169922	10021.962891
1032.051758	9954.898438
1030.933594	10060.039063
1029.815430	10145.012695
1028.697266	10039.965820
1027.578125	10218.756836
1026.458984	10113.739258
1025.339844	10176.286133
1024.220703	10435.318359
1023.100586	10232.083984
1021.980469	10136.080078
1020.860352	10276.670898
1019.740234	10580.071289
1018.619141	10499.666016
1017.498047	10446.057617
1016.376953	10526.250977
1015.255859	10570.742188
1014.133789	10555.038086
1013.011719	10572.761719
1011.889648	10496.915039
1010.767578	10608.184570
1009.644531	10559.082031
1008.521484	10472.153320
1007.398438	10391.939453
1006.274414	10309.535156
1005.151367	10287.234375
1004.027344	10349.464844
1002.902344	10338.282227
1001.778320	10311.541016
1000.653320	10251.468750
999.528320	10109.197266
998.403320	10178.058594
997.278320	10222.454102
996.152344	10186.879883
995.026367	10153.541016
993.900391	10053.620117
992.773438	9953.744141
991.646484	10033.636719
990.519531	9896.094727
989.392578	9918.299805
988.265625	9984.840820
987.137695	10033.616211
986.009766	10159.943359
984.881836	9964.907227
983.752930	9949.405273
982.624023	10248.427734
981.495117	10062.357422
980.366211	10126.542969
979.236328	9896.311523
978.106445	10029.105469
976.976563	9909.619141
975.846680	9922.903320
974.715820	9896.373047
973.585938	9995.880859
972.454102	9867.662109
971.323242	9841.160156
970.191406	9894.210938
969.060547	9920.729492
967.927734	9962.695313
966.795898	10028.929688
965.663086	10066.435547
964.530273	10412.912109
963.397461	10346.605469
962.264648	10534.026367
961.130859	10688.279297
959.997070	10566.825195
958.863281	10820.207031
957.729492	10855.268555
956.594727	10747.077148
955.459961	10870.262695
954.325195	10623.347656
953.189453	10347.914063
952.053711	10154.063477
950.917969	10303.680664
949.782227	10070.312500
948.646484	10184.677734
947.509766	9826.055664
946.373047	9876.644531
945.235352	9925.011719
944.098633	9916.203125
942.960938	9854.651367
941.823242	9913.974609
940.685547	9913.958008
939.546875	9935.903320
938.408203	9817.308594
937.269531	9867.802734
936.129883	9970.949219
934.991211	9973.109375
933.851563	10084.958984
932.711914	9979.619141
931.571289	10108.958008
930.431641	10141.775391
929.291016	10124.165039
928.149414	10213.937500
927.008789	10310.242188
925.867188	10198.416016
924.725586	10097.588867
923.583984	10204.798828
922.441406	10066.801758
921.299805	10020.779297
920.157227	9917.890625
919.013672	9740.674805
917.871094	9670.697266
916.727539	9825.955078
915.583984	9661.992188
914.439453	9515.584961
913.295898	9489.416992
912.151367	9395.540039
911.006836	9589.994141
909.861328	9389.142578
908.716797	9533.299805
907.571289	9321.636719
906.424805	9485.381836
905.279297	9424.350586
904.132813	9666.515625
902.986328	9489.898438
901.839844	9428.905273
900.692383	9540.126953
899.545898	9433.386719
898.398438	9612.092773
897.250000	9505.382813
896.102539	9577.287109
894.954102	9527.236328
893.805664	9644.811523
892.656250	9435.906250
891.507813	9638.298828
890.358398	9385.983398
889.208984	9555.673828
888.058594	9412.199219
886.908203	9305.742188
885.758789	9394.923828
884.607422	9449.300781
883.457031	9303.803711
882.305664	9288.678711
881.154297	9373.437500
880.002930	9284.494141
878.850586	9308.446289
877.698242	9299.839844
876.545898	9113.350586
875.393555	9193.712891
874.240234	9261.027344
873.086914	9115.860352
871.933594	9148.482422
870.780273	9202.757813
869.625977	9257.008789
868.471680	9261.417969
867.317383	9166.214844
866.162109	9053.734375
865.007813	9084.157227
863.852539	9268.207031
862.696289	9183.902344
861.541016	9264.021484
860.384766	9110.554688
859.228516	9097.686523
858.072266	9132.376953
856.915039	9154.083984
855.757813	9193.065430
854.600586	9247.148438
853.442383	9065.814453
852.285156	9063.764648
851.126953	9066.032227
849.968750	9156.779297
848.809570	9299.266602
847.650391	9219.506836
846.491211	9137.625000
845.332031	9101.058594
844.171875	9127.022461
843.012695	9092.627930
841.851563	9282.334961
840.691406	9325.470703
839.530273	9099.374023
838.369141	9067.167969
837.208008	9090.946289
836.046875	9078.125000
834.884766	9125.557617
833.722656	8891.152344
832.560547	9147.229492
831.397461	9041.941406
830.234375	9009.793945
829.071289	9108.767578
827.908203	9095.957031
826.744141	9224.942383
825.580078	8967.254883
824.416016	9115.535156
823.251953	8943.863281
822.086914	9053.444336
820.921875	9113.620117
819.756836	8976.389648
818.590820	9103.045898
817.425781	9115.989258
816.259766	9081.758789
815.092773	8906.075195
813.926758	8994.055664
812.759766	9090.566406
811.592773	8947.127930
810.424805	8942.952148
809.257813	9037.264648
808.089844	9026.647461
806.920898	8936.851563
805.752930	9168.031250
804.583984	9144.554688
803.415039	8896.536133
802.246094	8907.339844
801.076172	9074.183594
799.906250	9116.998047
798.736328	8941.853516
797.566406	8986.813477
796.395508	8916.424805
795.224609	9249.618164
794.053711	9059.657227
792.881836	9309.429688
791.710938	9226.226563
790.538086	9354.251953
789.366211	9495.013672
788.194336	9439.542969
787.021484	9516.266602
785.848633	9330.804688
784.674805	9298.845703
783.500977	9450.108398
782.327148	9369.148438
781.153320	9362.751953
779.979492	9205.208008
778.804688	9160.540039
777.629883	9452.097656
776.454102	9218.052734
775.279297	8981.987305
774.103516	9343.556641
772.927734	9228.747070
771.750977	9190.506836
770.575195	9201.157227
769.398438	9158.689453
768.220703	9256.424805
767.043945	9192.727539
765.866211	9271.301758
764.688477	9148.197266
763.510742	9247.964844
762.332031	9226.756836
761.153320	9409.181641
759.974609	9407.030273
758.794922	9557.527344
757.616211	9623.169922
756.436523	9741.759766
755.255859	9618.766602
754.076172	10006.311523
752.895508	10042.139648
751.714844	10372.244141
750.533203	10509.574219
749.352539	10949.462891
748.170898	11423.002930
746.988281	11868.825195
745.806641	12758.549805
744.624023	13542.150391
743.441406	15164.579102
742.258789	17151.871094
741.075195	19970.714844
739.891602	23838.117188
738.708008	27237.015625
737.523438	31141.089844
736.339844	34230.667969
735.155273	36244.617188
733.969727	37698.503906
732.785156	36943.105469
731.599609	35572.226563
730.414063	32957.960938
729.227539	29326.718750
728.041992	25848.884766
