#Wave		#Intensity
1585.210938	24267.126953
1584.209961	24516.892578
1583.208984	24838.935547
1582.208008	24741.416016
1581.206055	24489.175781
1580.204102	24424.208984
1579.202148	24182.119141
1578.200195	24207.042969
1577.198242	24084.810547
1576.195313	23805.535156
1575.192383	24127.185547
1574.189453	23912.820313
1573.186523	23915.343750
1572.182617	24012.539063
1571.178711	23526.816406
1570.174805	23474.626953
1569.170898	23656.505859
1568.166992	24012.568359
1567.162109	23671.597656
1566.158203	23659.230469
1565.153320	23644.378906
1564.147461	23574.812500
1563.142578	23470.458984
1562.136719	23204.539063
1561.130859	23684.458984
1560.125000	23813.759766
1559.119141	23962.882813
1558.113281	23908.236328
1557.106445	24462.121094
1556.099609	24250.951172
1555.092773	25010.597656
1554.084961	25047.615234
1553.078125	24948.126953
1552.070313	25369.718750
1551.062500	25627.412109
1550.054688	26202.455078
1549.045898	26804.533203
1548.038086	27212.992188
1547.029297	27943.494141
1546.020508	28192.951172
1545.011719	28917.990234
1544.001953	29444.568359
1542.992188	30144.281250
1541.982422	30539.154297
1540.972656	31188.839844
1539.962891	31469.480469
1538.952148	31740.107422
1537.942383	32062.572266
1536.931641	32172.187500
1535.919922	31962.744141
1534.909180	31909.150391
1533.897461	31202.992188
1532.886719	31117.447266
1531.874023	30493.281250
1530.862305	30015.125000
1529.850586	29122.226563
1528.837891	28733.447266
1527.825195	28162.130859
1526.812500	27521.937500
1525.799805	26896.816406
1524.786133	26649.449219
1523.772461	26320.781250
1522.758789	25918.257813
1521.745117	25461.652344
1520.731445	25076.728516
1519.716797	24689.498047
1518.702148	24763.242188
1517.687500	24568.406250
1516.672852	24602.730469
1515.657227	24430.169922
1514.642578	24555.607422
1513.626953	24533.291016
1512.610352	24506.058594
1511.594727	24929.140625
1510.579102	24392.582031
1509.562500	24284.224609
1508.545898	24217.714844
1507.529297	24446.269531
1506.511719	24269.136719
1505.494141	24492.669922
1504.477539	24546.566406
1503.458984	24504.632813
1502.441406	24644.466797
1501.423828	24236.644531
1500.405273	24550.783203
1499.386719	24516.242188
1498.368164	24354.103516
1497.348633	24653.296875
1496.330078	24601.582031
1495.310547	24603.841797
1494.291016	24630.619141
1493.271484	24544.615234
1492.250977	24250.310547
1491.231445	24257.537109
1490.210938	24433.810547
1489.190430	24492.433594
1488.168945	24215.519531
1487.148438	24374.548828
1486.126953	24837.058594
1485.105469	24614.085938
1484.083984	24731.330078
1483.061523	24735.990234
1482.040039	24799.347656
1481.017578	24950.714844
1479.995117	24928.427734
1478.971680	25204.367188
1477.949219	25333.554688
1476.925781	25465.132813
1475.902344	26151.191406
1474.878906	26746.595703
1473.855469	26494.417969
1472.831055	27267.722656
1471.806641	27584.261719
1470.782227	27983.640625
1469.757813	28512.164063
1468.733398	29079.498047
1467.708008	29268.572266
1466.682617	30176.876953
1465.657227	30767.886719
1464.631836	31495.136719
1463.605469	32594.919922
1462.579102	33111.964844
1461.552734	34337.613281
1460.526367	35272.949219
1459.500000	35419.019531
1458.472656	36268.539063
1457.445313	37049.558594
1456.417969	37214.632813
1455.390625	37209.339844
1454.362305	37150.535156
1453.334961	36787.785156
1452.306641	36753.402344
1451.277344	35773.468750
1450.249023	34983.496094
1449.219727	34145.257813
1448.191406	33125.171875
1447.162109	32394.527344
1446.131836	31632.617188
1445.102539	30878.304688
1444.072266	29973.816406
1443.041992	29392.457031
1442.011719	28969.041016
1440.981445	28409.958984
1439.950195	27834.130859
1438.918945	27508.285156
1437.887695	27332.873047
1436.856445	27029.078125
1435.825195	26679.365234
1434.792969	26710.160156
1433.760742	26140.238281
1432.728516	26190.501953
1431.696289	25700.820313
1430.663086	25828.613281
1429.629883	25399.710938
1428.596680	25275.865234
1427.563477	25050.464844
1426.530273	25308.888672
1425.496094	24757.119141
1424.461914	24950.216797
1423.427734	24437.423828
1422.393555	24400.921875
1421.358398	24060.000000
1420.323242	24057.408203
1419.288086	24006.513672
1418.252930	23965.296875
1417.217773	23820.289063
1416.181641	23841.880859
1415.145508	23730.738281
1414.109375	23819.890625
1413.073242	23694.324219
1412.036133	24152.421875
1411.000000	23990.667969
1409.962891	24270.125000
1408.924805	24190.355469
1407.887695	24407.000000
1406.849609	24616.326172
1405.812500	25071.242188
1404.773438	25446.498047
1403.735352	25710.847656
1402.697266	26242.273438
1401.658203	26657.958984
1400.619141	26890.607422
1399.580078	27250.652344
1398.540039	26917.876953
1397.500977	27282.572266
1396.460938	27502.867188
1395.420898	27487.517578
1394.380859	27433.722656
1393.339844	27170.921875
1392.298828	27448.701172
1391.257813	27099.546875
1390.216797	27062.677734
1389.175781	27107.441406
1388.133789	26904.976563
1387.091797	27264.097656
1386.049805	27253.609375
1385.007813	27576.525391
1383.964844	27515.611328
1382.922852	27701.671875
1381.879883	27513.708984
1380.835938	27960.917969
1379.792969	28556.492188
1378.749023	28761.337891
1377.706055	28779.281250
1376.661133	28967.228516
1375.617188	29035.390625
1374.573242	29110.705078
1373.528320	29499.478516
1372.483398	29751.710938
1371.438477	29740.707031
1370.392578	29662.740234
1369.347656	29477.207031
1368.301758	29898.957031
1367.255859	29713.447266
1366.208984	29759.802734
1365.163086	30159.720703
1364.116211	30010.095703
1363.069336	30034.861328
1362.022461	30522.804688
1360.974609	30139.257813
1359.927734	30390.699219
1358.879883	30412.970703
1357.832031	30721.500000
1356.783203	31173.001953
1355.735352	31176.011719
1354.686523	31372.128906
1353.637695	31556.244141
1352.588867	31883.265625
1351.539063	32522.265625
1350.490234	33244.367188
1349.440430	34035.234375
1348.390625	34535.269531
1347.339844	35363.617188
1346.290039	35660.855469
1345.239258	36262.550781
1344.188477	36892.542969
1343.137695	37455.667969
1342.085938	38056.605469
1341.034180	38362.464844
1339.982422	39098.445313
1338.930664	39258.980469
1337.878906	39716.457031
1336.826172	39974.187500
1335.773438	40538.195313
1334.720703	40441.828125
1333.667969	40276.644531
1332.614258	40007.089844
1331.561523	39687.812500
1330.507813	38913.125000
1329.453125	38980.855469
1328.399414	38747.363281
1327.344727	37771.808594
1326.290039	37351.386719
1325.235352	36876.621094
1324.180664	36530.015625
1323.125000	36427.570313
1322.070313	35865.656250
1321.014648	35408.167969
1319.958008	35867.144531
1318.902344	35199.171875
1317.845703	35099.468750
1316.789063	35096.816406
1315.732422	34058.015625
1314.675781	33665.332031
1313.618164	33414.687500
1312.560547	32445.447266
1311.502930	32048.615234
1310.445313	31425.085938
1309.386719	30473.410156
1308.329102	29996.923828
1307.270508	29548.976563
1306.210938	28699.818359
1305.152344	28254.689453
1304.092773	27592.611328
1303.033203	27289.478516
1301.973633	26816.611328
1300.914063	26810.957031
1299.853516	25965.794922
1298.792969	26639.328125
1297.732422	26237.705078
1296.671875	25914.017578
1295.611328	25889.701172
1294.549805	25985.533203
1293.488281	25980.048828
1292.426758	25729.677734
1291.364258	25790.164063
1290.302734	25645.849609
1289.240234	25574.544922
1288.177734	25456.214844
1287.114258	25556.685547
1286.051758	25567.750000
1284.988281	25569.400391
1283.924805	25249.001953
1282.861328	25121.455078
1281.796875	25395.759766
1280.732422	25618.265625
1279.667969	25488.367188
1278.603516	25675.531250
1277.539063	25559.757813
1276.473633	25821.935547
1275.408203	25879.833984
1274.342773	25620.962891
1273.277344	26108.148438
1272.210938	25839.953125
1271.145508	25947.031250
1270.079102	25686.013672
1269.011719	25863.386719
1267.945313	25670.449219
1266.877930	25606.441406
1265.810547	25509.667969
1264.743164	25312.238281
1263.674805	25093.816406
1262.607422	25214.900391
1261.539063	24673.628906
1260.470703	24396.982422
1259.401367	24253.791016
1258.333008	23883.794922
1257.263672	23675.296875
1256.194336	23184.009766
1255.125000	23450.218750
1254.054688	23300.359375
1252.985352	22949.638672
1251.915039	22792.937500
1250.843750	22612.949219
1249.773438	22304.619141
1248.702148	22143.482422
1247.630859	21917.064453
1246.559570	22101.408203
1245.488281	21912.416016
1244.416016	21742.164063
1243.343750	21683.908203
1242.271484	21453.158203
1241.199219	21432.279297
1240.125977	21287.900391
1239.053711	21327.640625
1237.980469	21330.091797
1236.906250	21048.416016
1235.833008	21244.177734
1234.758789	21314.148438
1233.684570	21034.978516
1232.610352	21174.769531
1231.536133	21009.738281
1230.460938	21286.699219
1229.385742	21154.265625
1228.310547	21045.138672
1227.235352	21110.386719
1226.159180	21136.099609
1225.083008	21354.642578
1224.006836	21408.164063
1222.930664	21361.794922
1221.853516	21289.904297
1220.777344	21605.722656
1219.700195	21652.175781
1218.622070	21891.203125
1217.544922	22058.208984
1216.466797	22169.474609
1215.388672	22278.371094
1214.310547	22384.902344
1213.232422	22783.451172
1212.153320	22681.251953
1211.074219	23174.558594
1209.995117	23225.205078
1208.916016	23465.738281
1207.835938	23747.845703
1206.755859	23367.738281
1205.675781	23307.193359
1204.595703	23325.349609
1203.514648	23257.896484
1202.434570	23257.546875
1201.353516	23127.695313
1200.271484	23138.929688
1199.190430	23020.712891
1198.108398	22888.677734
1197.026367	22636.546875
1195.944336	22620.150391
1194.862305	22321.990234
1193.779297	22305.664063
1192.696289	22051.558594
1191.613281	21769.863281
1190.530273	21370.601563
1189.446289	21649.792969
1188.362305	21121.552734
1187.278320	21313.042969
1186.194336	20757.431641
1185.109375	20550.128906
1184.024414	20425.880859
1182.939453	20739.466797
1181.854492	20221.306641
1180.768555	20111.021484
1179.683594	19920.189453
1178.597656	19837.638672
1177.510742	19847.189453
1176.424805	19872.841797
1175.337891	19723.630859
1174.250977	19788.398438
1173.164063	19825.539063
1172.077148	19747.705078
1170.989258	19681.394531
1169.901367	19762.195313
1168.813477	19859.044922
1167.724609	19843.287109
1166.636719	19774.710938
1165.547852	19862.304688
1164.458984	19986.589844
1163.369141	20172.792969
1162.280273	20166.156250
1161.190430	20345.353516
1160.100586	20632.277344
1159.010742	20797.535156
1157.919922	20827.445313
1156.829102	20756.482422
1155.738281	20713.048828
1154.647461	20710.875000
1153.555664	20894.253906
1152.464844	21089.003906
1151.373047	20869.214844
1150.280273	20825.796875
1149.188477	20732.039063
1148.095703	20599.419922
1147.002930	20608.701172
1145.910156	20391.531250
1144.817383	20499.183594
1143.723633	20035.203125
1142.629883	20222.886719
1141.536133	19818.582031
1140.441406	19834.863281
1139.347656	20015.611328
1138.252930	19618.458984
1137.158203	19703.269531
1136.062500	19689.878906
1134.967773	19614.867188
1133.872070	19380.152344
1132.776367	19508.281250
1131.679688	19666.005859
1130.583984	19581.935547
1129.487305	19413.542969
1128.390625	19673.753906
1127.292969	19425.646484
1126.196289	19583.208984
1125.098633	19499.240234
1124.000977	19426.691406
1122.903320	19761.750000
1121.804688	19652.750000
1120.706055	19241.089844
1119.607422	19580.515625
1118.508789	19357.871094
1117.409180	19365.046875
1116.310547	19263.064453
1115.210938	19368.011719
1114.110352	19218.337891
1113.010742	19323.246094
1111.910156	18991.880859
1110.809570	19105.876953
1109.708984	19110.812500
1108.607422	18786.513672
1107.506836	19197.853516
1106.405273	19148.291016
1105.303711	18930.835938
1104.201172	18944.871094
1103.098633	18793.326172
1101.996094	18859.535156
1100.893555	18837.296875
1099.791016	18833.199219
1098.687500	18917.480469
1097.583984	18747.974609
1096.480469	18834.500000
1095.376953	18909.662109
1094.272461	18919.128906
1093.167969	18894.636719
1092.063477	19019.521484
1090.958008	19248.431641
1089.853516	19422.949219
1088.748047	19283.017578
1087.642578	19518.498047
1086.536133	19880.474609
1085.430664	20027.574219
1084.324219	20353.123047
1083.217773	20511.345703
1082.110352	20728.224609
1081.003906	21155.023438
1079.896484	21380.693359
1078.789063	21315.082031
1077.680664	21599.291016
1076.573242	21630.675781
1075.464844	21643.998047
1074.356445	21718.203125
1073.247070	21370.732422
1072.138672	21190.230469
1071.029297	21138.269531
1069.919922	21122.380859
1068.809570	20588.355469
1067.700195	20570.337891
1066.589844	20351.916016
1065.479492	20417.255859
1064.368164	20036.900391
1063.257813	19800.730469
1062.146484	19526.414063
1061.035156	19578.373047
1059.922852	19198.525391
1058.811523	19241.537109
1057.699219	19050.748047
1056.586914	19030.843750
1055.473633	18932.304688
1054.361328	18681.050781
1053.248047	18715.136719
1052.134766	18618.970703
1051.021484	18565.500000
1049.907227	18534.494141
1048.792969	18496.769531
1047.678711	18499.441406
1046.564453	18643.416016
1045.449219	18307.439453
1044.333984	18561.248047
1043.218750	18359.921875
1042.103516	18304.347656
1040.987305	18425.794922
1039.871094	18522.546875
1038.754883	18583.421875
1037.638672	18292.744141
1036.521484	18176.796875
1035.404297	18407.792969
1034.287109	18546.947266
1033.169922	18301.267578
1032.051758	18393.414063
1030.933594	18337.937500
1029.815430	18521.689453
1028.697266	18401.388672
1027.578125	18475.548828
1026.458984	18393.287109
1025.339844	18284.257813
1024.220703	18396.351563
1023.100586	18448.115234
1021.980469	18426.191406
1020.860352	18564.955078
1019.740234	18431.457031
1018.619141	18547.849609
1017.498047	18601.744141
1016.376953	18452.712891
1015.255859	18276.996094
1014.133789	18272.962891
1013.011719	18402.623047
1011.889648	18382.966797
1010.767578	18385.589844
1009.644531	18419.384766
1008.521484	18361.888672
1007.398438	18173.097656
1006.274414	18380.480469
1005.151367	18265.181641
1004.027344	18503.587891
1002.902344	18435.009766
1001.778320	18639.921875
1000.653320	18666.919922
999.528320	18616.123047
998.403320	18636.445313
997.278320	18694.517578
996.152344	18888.035156
995.026367	18701.787109
993.900391	18968.466797
992.773438	18926.539063
991.646484	18988.914063
990.519531	19341.863281
989.392578	19470.650391
988.265625	19479.640625
987.137695	19386.648438
986.009766	19626.156250
984.881836	19794.644531
983.752930	19661.761719
982.624023	19672.906250
981.495117	19794.765625
980.366211	19668.607422
979.236328	19445.113281
978.106445	19270.400391
976.976563	19148.861328
975.846680	19018.529297
974.715820	19040.843750
973.585938	18923.855469
972.454102	18749.443359
971.323242	18561.847656
970.191406	18586.445313
969.060547	18303.978516
967.927734	18390.458984
966.795898	18181.023438
965.663086	18470.583984
964.530273	18036.099609
963.397461	18290.257813
962.264648	18422.964844
961.130859	18529.144531
959.997070	18187.640625
958.863281	18262.958984
957.729492	18212.605469
956.594727	18428.912109
955.459961	18345.496094
954.325195	18299.558594
953.189453	18176.564453
952.053711	18174.716797
950.917969	18216.890625
949.782227	18219.431641
948.646484	18118.560547
947.509766	17894.550781
946.373047	18200.648438
945.235352	18011.896484
944.098633	17937.533203
942.960938	18311.541016
941.823242	18276.693359
940.685547	18318.746094
939.546875	18415.683594
938.408203	18560.884766
937.269531	18337.210938
936.129883	18686.474609
934.991211	18816.152344
933.851563	18772.458984
932.711914	18836.257813
931.571289	18792.576172
930.431641	19011.992188
929.291016	19229.117188
928.149414	19038.550781
927.008789	18988.285156
925.867188	18804.423828
924.725586	19041.105469
923.583984	18754.410156
922.441406	18774.291016
921.299805	18465.896484
920.157227	18411.439453
919.013672	18127.322266
917.871094	18158.253906
916.727539	17843.707031
915.583984	17916.218750
914.439453	17680.541016
913.295898	17471.189453
912.151367	17659.507813
911.006836	17533.244141
909.861328	17420.134766
908.716797	17451.156250
907.571289	17475.615234
906.424805	17393.138672
905.279297	17467.771484
904.132813	17538.007813
902.986328	17350.900391
901.839844	17381.886719
900.692383	17476.064453
899.545898	17653.005859
898.398438	17474.750000
897.250000	17331.423828
896.102539	17497.384766
894.954102	17528.287109
893.805664	17485.166016
892.656250	17324.550781
891.507813	17405.505859
890.358398	17521.226563
889.208984	17230.224609
888.058594	17432.898438
886.908203	17428.974609
885.758789	17464.169922
884.607422	17334.220703
883.457031	17241.253906
882.305664	17217.826172
881.154297	17294.285156
880.002930	17077.652344
878.850586	17266.962891
877.698242	17091.656250
876.545898	17200.609375
875.393555	17198.900391
874.240234	17294.767578
873.086914	17128.279297
871.933594	17154.759766
870.780273	17261.400391
869.625977	16828.560547
868.471680	17104.166016
867.317383	17076.486328
866.162109	17146.240234
865.007813	16990.859375
863.852539	16751.152344
862.696289	16907.466797
861.541016	16936.093750
860.384766	16716.019531
859.228516	16764.130859
858.072266	16944.070313
856.915039	16795.453125
855.757813	16638.259766
854.600586	16872.103516
853.442383	16751.673828
852.285156	16829.929688
851.126953	16817.488281
849.968750	17234.513672
848.809570	16954.441406
847.650391	17185.730469
846.491211	16927.359375
845.332031	16839.437500
844.171875	16885.207031
843.012695	16734.832031
841.851563	16860.324219
840.691406	16899.587891
839.530273	16869.916016
838.369141	16745.515625
837.208008	16924.703125
836.046875	17022.021484
834.884766	16972.976563
833.722656	16803.482422
832.560547	16689.984375
831.397461	16918.429688
830.234375	16779.156250
829.071289	16960.191406
827.908203	16941.300781
826.744141	16926.716797
825.580078	16738.160156
824.416016	16972.718750
823.251953	16876.550781
822.086914	16853.400391
820.921875	16924.681641
819.756836	16729.896484
818.590820	16893.400391
817.425781	16958.183594
816.259766	16669.187500
815.092773	16834.732422
813.926758	16843.763672
812.759766	16827.082031
811.592773	16981.763672
810.424805	16900.808594
809.257813	16815.605469
808.089844	16875.998047
806.920898	16887.140625
805.752930	16590.177734
804.583984	16753.251953
803.415039	16668.173828
802.246094	16572.441406
801.076172	16622.109375
799.906250	16714.496094
798.736328	16623.087891
797.566406	16542.400391
796.395508	16908.103516
795.224609	16744.115234
794.053711	16761.646484
792.881836	16977.652344
791.710938	17287.439453
790.538086	17437.093750
789.366211	17714.642578
788.194336	17665.826172
787.021484	18156.371094
785.848633	18192.724609
784.674805	18011.718750
783.500977	18248.337891
782.327148	17986.464844
781.153320	17884.410156
779.979492	17839.880859
778.804688	17580.404297
777.629883	17429.566406
776.454102	17325.599609
775.279297	17370.562500
774.103516	17245.390625
772.927734	17352.001953
771.750977	17456.435547
770.575195	17756.320313
769.398438	17720.396484
768.220703	17739.710938
767.043945	18009.591797
765.866211	18151.964844
764.688477	18054.423828
763.510742	18512.906250
762.332031	18773.871094
761.153320	19410.150391
759.974609	19882.847656
758.794922	20196.318359
757.616211	21215.486328
756.436523	22418.550781
755.255859	23841.404297
754.076172	25632.169922
752.895508	28218.371094
751.714844	31104.029297
750.533203	34206.386719
749.352539	37980.289063
748.170898	41085.996094
746.988281	43841.253906
745.806641	45408.847656
744.624023	45681.761719
743.441406	45398.613281
742.258789	44616.843750
741.075195	42981.832031
