#Wave		#Intensity
1585.210938	5257.544434
1584.209961	5172.624512
1583.208984	5074.165039
1582.208008	5260.359375
1581.206055	5089.535156
1580.204102	5180.817383
1579.202148	5027.545410
1578.200195	5268.474609
1577.198242	5147.669922
1576.195313	5089.252930
1575.192383	5285.145020
1574.189453	5236.693359
1573.186523	5270.496094
1572.182617	5109.952148
1571.178711	5178.639648
1570.174805	5137.720703
1569.170898	5208.863281
1568.166992	5153.018555
1567.162109	5124.573730
1566.158203	4956.792969
1565.153320	5045.328613
1564.147461	5325.350586
1563.142578	5184.986816
1562.136719	5168.995605
1561.130859	5085.894531
1560.125000	5268.750977
1559.119141	5155.846191
1558.113281	5256.632324
1557.106445	5243.125000
1556.099609	5261.905273
1555.092773	5253.367676
1554.084961	5291.994629
1553.078125	5385.202148
1552.070313	5346.869629
1551.062500	5365.607910
1550.054688	5215.689941
1549.045898	5251.803711
1548.038086	5322.610352
1547.029297	5306.636719
1546.020508	5089.946289
1545.011719	5145.876465
1544.001953	5191.874512
1542.992188	5066.973145
1541.982422	5137.728516
1540.972656	5285.194824
1539.962891	5185.101074
1538.952148	5149.385254
1537.942383	5108.735352
1536.931641	5256.084961
1535.919922	5198.119141
1534.909180	5083.311035
1533.897461	5188.551270
1532.886719	5125.691895
1531.874023	5025.794922
1530.862305	5121.099121
1529.850586	5011.364746
1528.837891	5020.204102
1527.825195	5090.761230
1526.812500	5156.352539
1525.799805	5115.799805
1524.786133	5097.469238
1523.772461	4941.004883
1522.758789	5137.285156
1521.745117	5096.769043
1520.731445	5098.178711
1519.716797	5106.982422
1518.702148	5029.532715
1517.687500	5097.476074
1516.672852	5236.824707
1515.657227	5171.709473
1514.642578	5111.545410
1513.626953	5117.871582
1512.610352	5045.437500
1511.594727	5032.088867
1510.579102	4952.321289
1509.562500	5091.496582
1508.545898	5102.737305
1507.529297	5113.973633
1506.511719	5053.919434
1505.494141	5008.635254
1504.477539	5110.796387
1503.458984	5043.409668
1502.441406	5165.169434
1501.423828	5198.477539
1500.405273	5217.041504
1499.386719	5284.688477
1498.368164	4989.106445
1497.348633	5061.679199
1496.330078	5070.442871
1495.310547	5231.259277
1494.291016	5092.861816
1493.271484	5116.321777
1492.250977	5105.457520
1491.231445	5111.750977
1490.210938	5149.891602
1489.190430	5063.092285
1488.168945	5164.899902
1487.148438	5122.205566
1486.126953	5231.302246
1485.105469	5154.346680
1484.083984	5204.664063
1483.061523	5135.084961
1482.040039	5175.601074
1481.017578	5213.655273
1479.995117	5058.543945
1478.971680	5182.160645
1477.949219	5308.169434
1476.925781	5365.709961
1475.902344	5305.967773
1474.878906	5256.020020
1473.855469	5301.325684
1472.831055	5290.460449
1471.806641	5448.020020
1470.782227	5371.238770
1469.757813	5531.155273
1468.733398	5464.145020
1467.708008	5538.615723
1466.682617	5549.658691
1465.657227	5543.631348
1464.631836	5654.598145
1463.605469	5736.276855
1462.579102	5742.395508
1461.552734	5787.484375
1460.526367	5871.519043
1459.500000	5833.778320
1458.472656	5779.012695
1457.445313	5819.187988
1456.417969	5937.210938
1455.390625	5935.978027
1454.362305	5706.112305
1453.334961	5639.269531
1452.306641	5638.098633
1451.277344	5627.205078
1450.249023	5609.024902
1449.219727	5624.868164
1448.191406	5596.978516
1447.162109	5503.523926
1446.131836	5623.792480
1445.102539	5600.774414
1444.072266	5568.057129
1443.041992	5620.288086
1442.011719	5657.939941
1440.981445	5712.555664
1439.950195	5716.218750
1438.918945	5605.919434
1437.887695	5599.905762
1436.856445	5598.741699
1435.825195	5558.807129
1434.792969	5569.765137
1433.760742	5401.476074
1432.728516	5548.075684
1431.696289	5474.286621
1430.663086	5407.790039
1429.629883	5440.548340
1428.596680	5407.960938
1427.563477	5288.296875
1426.530273	5265.429199
1425.496094	5307.860352
1424.461914	5265.656250
1423.427734	5245.223145
1422.393555	5304.548340
1421.358398	5269.618164
1420.323242	5200.883789
1419.288086	5132.177246
1418.252930	5186.645508
1417.217773	5291.788086
1416.181641	5300.340820
1415.145508	5200.299316
1414.109375	5138.900391
1413.073242	5253.612793
1412.036133	5281.458008
1411.000000	5232.135742
1409.962891	5178.012207
1408.924805	5251.647461
1407.887695	5298.745605
1406.849609	5451.824707
1405.812500	5419.376953
1404.773438	5483.266602
1403.735352	5472.493652
1402.697266	5452.096191
1401.658203	5547.223633
1400.619141	5447.416992
1399.580078	5518.449707
1398.540039	5579.831543
1397.500977	5434.392090
1396.460938	5579.908691
1395.420898	5470.583008
1394.380859	5450.217285
1393.339844	5528.366211
1392.298828	5503.191895
1391.257813	5456.413574
1390.216797	5397.648438
1389.175781	5521.353027
1388.133789	5534.601074
1387.091797	5425.464355
1386.049805	5469.914551
1385.007813	5497.555664
1383.964844	5436.455566
1382.922852	5507.248047
1381.879883	5654.716797
1380.835938	5655.932617
1379.792969	5743.406250
1378.749023	5675.129883
1377.706055	5729.031250
1376.661133	5782.909668
1375.617188	5671.573242
1374.573242	5653.632813
1373.528320	5678.775391
1372.483398	5825.928223
1371.438477	5796.004883
1370.392578	5708.696289
1369.347656	5621.423828
1368.301758	5715.871582
1367.255859	5662.094238
1366.208984	5663.299316
1365.163086	5805.459473
1364.116211	5529.558105
1363.069336	5683.626465
1362.022461	5510.531250
1360.974609	5580.990234
1359.927734	5663.352539
1358.879883	5602.514648
1357.832031	5629.968750
1356.783203	5602.554199
1355.735352	5663.379883
1354.686523	5578.750977
1353.637695	5613.335938
1352.588867	5719.398926
1351.539063	5610.984375
1350.490234	5736.059082
1349.440430	5796.778320
1348.390625	5847.947266
1347.339844	5827.676758
1346.290039	5814.554199
1345.239258	5922.796387
1344.188477	6090.469727
1343.137695	6001.184570
1342.085938	6178.282715
1341.034180	6255.447266
1339.982422	6192.330566
1338.930664	6414.431152
1337.878906	6332.297852
1336.826172	6387.982910
1335.773438	6320.139648
1334.720703	6290.317383
1333.667969	6388.708984
1332.614258	6354.137207
1331.561523	6227.028320
1330.507813	6173.522949
1329.453125	6176.970215
1328.399414	6194.645508
1327.344727	6107.983887
1326.290039	6111.441406
1325.235352	5930.028320
1324.180664	5893.237305
1323.125000	6031.776367
1322.070313	5971.292969
1321.014648	5880.048340
1319.958008	5852.768066
1318.902344	5910.714844
1317.845703	5852.672363
1316.789063	5754.429688
1315.732422	5880.962891
1314.675781	5848.978516
1313.618164	5831.194824
1312.560547	5777.956543
1311.502930	5816.921875
1310.445313	5758.981445
1309.386719	5682.164063
1308.329102	5711.675293
1307.270508	5606.559082
1306.210938	5695.102051
1305.152344	5755.278809
1304.092773	5789.468262
1303.033203	5606.554199
1301.973633	5619.527344
1300.914063	5554.658691
1299.853516	5645.456055
1298.792969	5663.126465
1297.732422	5560.573730
1296.671875	5571.184082
1295.611328	5668.968262
1294.549805	5540.564941
1293.488281	5456.964355
1292.426758	5533.517090
1291.364258	5438.181152
1290.302734	5415.850098
1289.240234	5355.876465
1288.177734	5439.442383
1287.114258	5257.173828
1286.051758	5427.737793
1284.988281	5450.103027
1283.924805	5336.117188
1282.861328	5459.550781
1281.796875	5484.243652
1280.732422	5389.115234
1279.667969	5477.227539
1278.603516	5454.935059
1277.539063	5585.254395
1276.473633	5720.212402
1275.408203	5566.463867
1274.342773	5598.133789
1273.277344	5519.539063
1272.210938	5527.751953
1271.145508	5559.408203
1270.079102	5581.673828
1269.011719	5603.929199
1267.945313	5352.013184
1266.877930	5444.590332
1265.810547	5366.141602
1264.743164	5306.460449
1263.674805	5396.645508
1262.607422	5259.736328
1261.539063	5221.176758
1260.470703	5320.680664
1259.401367	5216.623535
1258.333008	5351.167480
1257.263672	5207.395996
1256.194336	5246.033691
1255.125000	5048.586914
1254.054688	5138.650879
1252.985352	5118.869629
1251.915039	5136.469727
1250.843750	5261.486816
1249.773438	5166.976074
1248.702148	5046.827637
1247.630859	5253.467285
1246.559570	5215.017578
1245.488281	5171.918457
1244.416016	5156.825195
1243.343750	5146.401367
1242.271484	4984.443848
1241.199219	5081.280273
1240.125977	5131.467773
1239.053711	5039.511230
1237.980469	5096.673340
1236.906250	4953.527344
1235.833008	5185.311523
1234.758789	5102.731934
1233.684570	5115.610352
1232.610352	5244.827148
1231.536133	5183.224121
1230.460938	5137.927734
1229.385742	5057.769531
1228.310547	5103.190430
1227.235352	5118.374023
1226.159180	5133.550781
1225.083008	5104.575195
1224.006836	5103.487305
1222.930664	5153.492676
1221.853516	5087.379395
1220.777344	5148.973145
1219.700195	5034.147949
1218.622070	5102.687988
1217.544922	5050.559570
1216.466797	5091.231934
1215.388672	5050.722656
1214.310547	5038.052246
1213.232422	4990.616699
1212.153320	5186.537109
1211.074219	5178.478516
1209.995117	5165.789551
1208.916016	5150.789551
1207.835938	5177.475098
1206.755859	5055.987793
1205.675781	5117.398438
1204.595703	5134.816406
1203.514648	5105.956055
1202.434570	5095.611816
1201.353516	5108.396973
1200.271484	5058.750977
1199.190430	5046.110840
1198.108398	5100.496094
1197.026367	5164.099609
1195.944336	5114.482422
1194.862305	5062.576660
1193.779297	4969.129395
1192.696289	5051.173828
1191.613281	4957.768066
1190.530273	4989.011719
1189.446289	4964.871582
1188.362305	4998.406250
1187.278320	4921.232910
1186.194336	4966.290039
1185.109375	4960.614258
1184.024414	4795.921875
1182.939453	5018.393555
1181.854492	4980.458496
1180.768555	4882.657715
1179.683594	5026.675781
1178.597656	4832.215820
1177.510742	4957.769531
1176.424805	4786.418457
1175.337891	4921.129883
1174.250977	4975.276367
1173.164063	4838.526367
1172.077148	4966.240723
1170.989258	4882.420410
1169.901367	4872.177734
1168.813477	4944.656250
1167.724609	4913.729004
1166.636719	4910.375488
1165.547852	4851.913086
1164.458984	4993.204102
1163.369141	4989.833984
1162.280273	4901.560059
1161.190430	5010.628418
1160.100586	4956.792969
1159.010742	4999.296875
1157.919922	4947.779297
1156.829102	4905.452637
1155.738281	5016.691895
1154.647461	4976.659180
1153.555664	4954.969238
1152.464844	4995.125977
1151.373047	5026.105957
1150.280273	5047.914551
1149.188477	5120.067383
1148.095703	5073.196289
1147.002930	5026.345215
1145.910156	4924.617676
1144.817383	4889.251953
1143.723633	5109.971191
1142.629883	4909.999023
1141.536133	4954.645508
1140.441406	4994.702637
1139.347656	5000.476074
1138.252930	4793.847168
1137.158203	4833.911621
1136.062500	4892.221191
1134.967773	4961.917480
1133.872070	5022.455566
1132.776367	5023.650391
1131.679688	5068.181641
1130.583984	5187.947266
1129.487305	5102.467285
1128.390625	4998.788086
1127.292969	5004.542480
1126.196289	5039.914063
1125.098633	4911.257324
1124.000977	5001.291504
1122.903320	5022.977539
1121.804688	4969.529785
1120.706055	4970.729004
1119.607422	5131.210449
1118.508789	5000.423340
1117.409180	4940.202148
1116.310547	4895.924316
1115.210938	5035.819824
1114.110352	4977.901367
1113.010742	4947.278320
1111.910156	4903.036133
1110.809570	5081.422852
1109.708984	5030.356445
1108.607422	5011.099121
1107.506836	5100.812988
1106.405273	4979.417969
1105.303711	4833.115234
1104.201172	5020.356934
1103.098633	5001.120605
1101.996094	4888.921387
1100.893555	4951.336914
1099.791016	4927.593750
1098.687500	4917.457520
1097.583984	4907.324707
1096.480469	5028.573730
1095.376953	4896.130371
1094.272461	5060.346680
1093.167969	5032.081055
1092.063477	5012.879883
1090.958008	4977.847656
1089.853516	4929.257813
1088.748047	4939.492188
1087.642578	4888.669434
1086.536133	5075.240723
1085.430664	4979.206055
1084.324219	4919.368164
1083.217773	4841.481934
1082.110352	4921.739258
1081.003906	4997.444824
1079.896484	5052.797852
1078.789063	4972.691406
1077.680664	4996.430176
1076.573242	5060.770508
1075.464844	5005.526855
1074.356445	4979.625488
1073.247070	4944.715820
1072.138672	4957.161133
1071.029297	4908.748047
1069.919922	5031.606445
1068.809570	4904.349121
1067.700195	4903.276855
1066.589844	4843.657227
1065.479492	4966.420410
1064.368164	5019.353516
1063.257813	4973.248535
1062.146484	5071.152832
1061.035156	4989.065918
1059.922852	5086.923340
1058.811523	4919.430176
1057.699219	4871.147461
1056.586914	4955.480469
1055.473633	5077.973633
1054.361328	4991.497559
1053.248047	4972.436035
1052.134766	4861.320801
1051.021484	5033.113770
1049.907227	4865.921875
1048.792969	4822.219727
1047.678711	4964.742188
1046.564453	4997.296875
1045.449219	4955.835938
1044.333984	4923.360352
1043.218750	5061.250488
1042.103516	4865.173828
1040.987305	4915.636230
1039.871094	4824.956543
1038.754883	4953.787598
1037.638672	4874.333496
1036.521484	4857.592285
1035.404297	4845.333984
1034.287109	4812.942871
1033.169922	4932.685059
1032.051758	4884.632324
1030.933594	4870.141113
1029.815430	5038.972656
1028.697266	4999.867188
1027.578125	5072.507813
1026.458984	4966.388672
1025.339844	4922.856445
1024.220703	4990.998535
1023.100586	4898.361816
1021.980469	4970.942383
1020.860352	4943.067383
1019.740234	5006.680664
1018.619141	4802.587891
1017.498047	4921.957520
1016.376953	4816.077637
1015.255859	4913.099121
1014.133789	4927.615723
1013.011719	4908.702637
1011.889648	5034.598145
1010.767578	4908.763184
1009.644531	4967.800781
1008.521484	4957.798828
1007.398438	4905.512207
1006.274414	4937.807129
1005.151367	4914.468262
1004.027344	4935.625000
1002.902344	5014.589355
1001.778320	4904.540527
1000.653320	5019.040527
999.528320	4935.706055
998.403320	5003.489746
997.278320	5022.374512
996.152344	4870.248047
995.026367	4844.746582
993.900391	4930.247559
992.773438	4869.233887
991.646484	5045.663574
990.519531	4902.571289
989.392578	4899.267090
988.265625	4927.007813
987.137695	4910.397461
986.009766	4862.765137
984.881836	4903.789063
983.752930	4800.792969
982.624023	4923.764160
981.495117	4789.806152
980.366211	4788.743652
979.236328	4867.365234
978.106445	4974.719727
976.976563	4787.768555
975.846680	4888.456543
974.715820	4867.467773
973.585938	4903.973633
972.454102	4854.253418
971.323242	4895.165039
970.191406	4847.677246
969.060547	4881.944336
967.927734	4883.067871
966.795898	4811.324707
965.663086	4816.877930
964.530273	4926.159668
963.397461	4997.880371
962.264648	4996.768555
961.130859	4894.199707
959.997070	5109.209961
958.863281	5022.092773
957.729492	4946.035156
956.594727	4977.987793
955.459961	5197.192871
954.325195	5033.039551
953.189453	4937.225586
952.053711	5010.981934
950.917969	4996.657715
949.782227	4953.730957
948.646484	4996.630371
947.509766	4971.319824
946.373047	4877.844238
945.235352	4828.384277
944.098633	5027.345703
942.960938	4914.139160
941.823242	4897.661621
940.685547	4797.714355
939.546875	4796.643066
938.408203	4903.165039
937.269531	4917.437012
936.129883	5052.415527
934.991211	4956.931641
933.851563	4876.846680
932.711914	4864.790039
931.571289	4966.765625
930.431641	5024.848633
929.291016	4940.434570
928.149414	4965.625977
927.008789	4914.125000
925.867188	4862.646973
924.725586	4868.128418
923.583984	4904.258789
922.441406	4855.004883
921.299805	4794.830566
920.157227	4830.951660
919.013672	4832.057129
917.871094	4835.348633
916.727539	4812.400391
915.583984	4820.065918
914.439453	4801.501953
913.295898	4903.120117
912.151367	4926.050293
911.006836	4872.529297
909.861328	4897.639160
908.716797	4796.121094
907.571289	4805.957520
906.424805	4822.335449
905.279297	4912.878906
904.132813	4791.817383
902.986328	4788.561035
901.839844	4765.684570
900.692383	4897.570313
899.545898	4848.529785
898.398438	4803.868164
897.250000	4992.286133
896.102539	4888.814941
894.954102	4894.247559
893.805664	4901.854004
892.656250	4976.917969
891.507813	4934.460938
890.358398	4837.642090
889.208984	4788.710449
888.058594	4902.866699
886.908203	5012.623535
885.758789	4852.848633
884.607422	4949.530273
883.457031	4796.357422
882.305664	4849.571777
881.154297	4900.590332
880.002930	4795.288574
878.850586	4646.627441
877.698242	4823.505371
876.545898	4785.539551
875.393555	4838.682129
874.240234	4796.392578
873.086914	4790.975098
871.933594	4753.049805
870.780273	4715.140625
869.625977	4798.566406
868.471680	4786.654297
867.317383	4774.747070
866.162109	4747.689941
865.007813	4831.031738
863.852539	4799.645508
862.696289	4928.369629
861.541016	4855.878418
860.384766	4919.656250
859.228516	4929.354980
858.072266	4863.395996
856.915039	4849.330566
855.757813	4956.261230
854.600586	4767.217285
853.442383	4796.373047
852.285156	4831.992676
851.126953	4841.692871
849.968750	4842.755859
848.809570	4690.627930
847.650391	4801.736328
846.491211	4817.902832
845.332031	4732.723145
844.171875	4845.901367
843.012695	4670.235840
841.851563	4798.458984
840.691406	4749.979980
839.530273	4761.826172
838.369141	4741.368652
837.208008	4718.767090
836.046875	4754.285645
834.884766	4695.111328
833.722656	4749.979492
832.560547	4751.053223
831.397461	4722.022461
830.234375	4785.445313
829.071289	4730.627441
827.908203	4755.339844
826.744141	4653.289551
825.580078	4669.416016
824.416016	4681.240723
823.251953	4815.430664
822.086914	4621.163086
820.921875	4746.721680
819.756836	4655.536621
818.590820	4622.305176
817.425781	4726.332520
816.259766	4740.266602
815.092773	4709.181152
813.926758	4665.251465
812.759766	4739.177734
811.592773	4785.224609
810.424805	4809.834961
809.257813	4538.972168
808.089844	4576.469238
806.920898	4633.209961
805.752930	4636.435059
804.583984	4646.075195
803.415039	4634.325195
802.246094	4680.308594
801.076172	4689.931641
799.906250	4701.686523
798.736328	4585.237305
797.566406	4573.512207
796.395508	4623.727051
795.224609	4693.134766
794.053711	4702.739258
792.881836	4588.554199
791.710938	4655.788086
790.538086	4712.324219
789.366211	4615.276367
788.194336	4654.737305
787.021484	4581.195313
785.848633	4682.453125
784.674805	4670.730957
783.500977	4588.713379
782.327148	4770.832520
781.153320	4705.863281
779.979492	4660.083496
778.804688	4669.661621
777.629883	4736.688477
776.454102	4731.352539
775.279297	4634.560547
774.103516	4576.088867
772.927734	4715.356445
771.750977	4690.899414
770.575195	4670.702637
769.398438	4563.411133
768.220703	4462.540039
767.043945	4714.219238
765.866211	4685.542480
764.688477	4661.123535
763.510742	4698.254883
762.332031	4633.533203
761.153320	4585.809570
759.974609	4707.756348
758.794922	4651.556152
757.616211	4650.492188
756.436523	4609.164063
755.255859	4684.381836
754.076172	4759.564453
752.895508	4707.649902
751.714844	4852.660645
750.533203	4737.246094
749.352539	4670.557617
748.170898	4849.328125
746.988281	4945.520020
745.806641	4976.109375
744.624023	5148.342773
743.441406	5320.497070
742.258789	5581.332031
741.075195	5732.178711
739.891602	5988.574219
738.708008	6278.642090
737.523438	6522.125488
736.339844	6759.164063
735.155273	7008.755859
733.969727	6998.708984
732.785156	6919.053223
731.599609	6953.318848
730.414063	6637.557617
729.227539	6469.501465
728.041992	6312.059570
726.855469	6005.088867
725.667969	5706.685059
724.481445	5435.796387
723.293945	5377.697754
722.106445	5252.261230
720.918945	5141.614258
719.730469	5045.746582
718.541992	5046.691406
717.353516	4913.031738
716.164063	4901.389648
714.975586	4769.926270
713.786133	4678.456055
712.595703	4631.153320
711.406250	4672.104492
710.215820	4689.933105
709.025391	4636.359863
707.833984	4538.725586
706.642578	4600.646973
705.451172	4603.785645
704.259766	4598.531250
703.068359	4595.375977
