#Wave		#Intensity
1585.210938	8234.738281
1584.209961	8329.649414
1583.208984	8357.888672
1582.208008	8480.987305
1581.206055	8326.968750
1580.204102	8267.845703
1579.202148	8311.043945
1578.200195	8239.474609
1577.198242	8160.453125
1576.195313	8318.347656
1575.192383	8316.625000
1574.189453	8247.605469
1573.186523	8096.378906
1572.182617	8099.685059
1571.178711	8018.297852
1570.174805	8178.514160
1569.170898	8261.476563
1568.166992	8242.339844
1567.162109	8106.234375
1566.158203	8251.368164
1565.153320	8155.121582
1564.147461	8163.382324
1563.142578	8156.718262
1562.136719	8172.433105
1561.130859	8016.623047
1560.125000	8154.137207
1559.119141	8259.292969
1558.113281	8332.109375
1557.106445	8417.314453
1556.099609	8375.840820
1555.092773	8582.652344
1554.084961	8700.019531
1553.078125	8596.469727
1552.070313	8708.822266
1551.062500	8890.585938
1550.054688	9049.953125
1549.045898	9065.436523
1548.038086	9132.974609
1547.029297	9356.633789
1546.020508	9389.389648
1545.011719	9699.617188
1544.001953	9603.481445
1542.992188	10002.690430
1541.982422	10116.992188
1540.972656	10298.084961
1539.962891	10182.103516
1538.952148	10360.631836
1537.942383	10420.335938
1536.931641	10457.753906
1535.919922	10487.737305
1534.909180	10394.085938
1533.897461	10302.944336
1532.886719	10204.426758
1531.874023	10044.176758
1530.862305	10106.327148
1529.850586	9926.404297
1528.837891	9862.615234
1527.825195	9571.717773
1526.812500	9290.814453
1525.799805	9261.744141
1524.786133	8939.076172
1523.772461	8905.156250
1522.758789	8750.402344
1521.745117	8763.384766
1520.731445	8823.202148
1519.716797	8663.630859
1518.702148	8425.268555
1517.687500	8430.915039
1516.672852	8421.779297
1515.657227	8518.543945
1514.642578	8366.584961
1513.626953	8382.083984
1512.610352	8468.951172
1511.594727	8518.871094
1510.579102	8455.602539
1509.562500	8466.150391
1508.545898	8464.396484
1507.529297	8452.808594
1506.511719	8409.269531
1505.494141	8498.459961
1504.477539	8464.756836
1503.458984	8406.501953
1502.441406	8360.550781
1501.423828	8528.253906
1500.405273	8224.512695
1499.386719	8247.354492
1498.368164	8473.873047
1497.348633	8423.046875
1496.330078	8431.113281
1495.310547	8512.752930
1494.291016	8366.319336
1493.271484	8504.322266
1492.250977	8289.322266
1491.231445	8375.822266
1490.210938	8430.436523
1489.190430	8458.083008
1488.168945	8495.513672
1487.148438	8537.825195
1486.126953	8418.553711
1485.105469	8470.652344
1484.083984	8625.500977
1483.061523	8743.588867
1482.040039	8864.073242
1481.017578	8732.627930
1479.995117	8911.741211
1478.971680	8922.116211
1477.949219	9013.134766
1476.925781	9192.077148
1475.902344	9319.644531
1474.878906	9408.080078
1473.855469	9628.340820
1472.831055	9765.501953
1471.806641	9499.862305
1470.782227	10078.698242
1469.757813	10279.116211
1468.733398	10491.646484
1467.708008	10404.110352
1466.682617	10772.580078
1465.657227	11043.381836
1464.631836	11316.508789
1463.605469	11331.217773
1462.579102	11713.804688
1461.552734	11691.887695
1460.526367	12290.981445
1459.500000	12522.170898
1458.472656	12663.195313
1457.445313	12816.329102
1456.417969	13025.364258
1455.390625	13171.059570
1454.362305	12815.645508
1453.334961	12971.049805
1452.306641	12834.637695
1451.277344	12513.542969
1450.249023	12389.431641
1449.219727	12187.619141
1448.191406	11487.895508
1447.162109	11555.942383
1446.131836	11245.156250
1445.102539	11007.331055
1444.072266	10745.331055
1443.041992	10391.223633
1442.011719	10340.540039
1440.981445	10282.600586
1439.950195	9771.168945
1438.918945	9895.223633
1437.887695	9750.138672
1436.856445	9697.214844
1435.825195	9464.996094
1434.792969	9414.574219
1433.760742	9260.019531
1432.728516	9388.865234
1431.696289	9069.738281
1430.663086	9159.837891
1429.629883	9203.916992
1428.596680	8860.829102
1427.563477	8929.141602
1426.530273	8997.425781
1425.496094	8806.937500
1424.461914	8749.499023
1423.427734	8880.622070
1422.393555	8678.192383
1421.358398	8678.802734
1420.323242	8522.395508
1419.288086	8552.018555
1418.252930	8581.628906
1417.217773	8681.236328
1416.181641	8689.083984
1415.145508	8776.560547
1414.109375	8569.659180
1413.073242	8579.935547
1412.036133	8720.434570
1411.000000	8827.119141
1409.962891	8851.797852
1408.924805	8951.178711
1407.887695	9084.251953
1406.849609	9185.951172
1405.812500	9179.219727
1404.773438	9543.339844
1403.735352	9625.617188
1402.697266	9885.986328
1401.658203	9948.903320
1400.619141	10182.627930
1399.580078	10262.294922
1398.540039	10185.597656
1397.500977	10289.276367
1396.460938	10291.938477
1395.420898	10393.146484
1394.380859	10376.560547
1393.339844	10076.474609
1392.298828	10127.217773
1391.257813	10033.844727
1390.216797	10098.981445
1389.175781	9969.642578
1388.133789	9977.162109
1387.091797	9814.307617
1386.049805	9965.800781
1385.007813	10040.474609
1383.964844	10148.690430
1382.922852	10340.775391
1381.879883	10314.644531
1380.835938	10389.180664
1379.792969	10705.689453
1378.749023	10883.122070
1377.706055	10797.020508
1376.661133	10782.791016
1375.617188	11027.127930
1374.573242	11034.398438
1373.528320	10893.292969
1372.483398	10993.897461
1371.438477	11082.498047
1370.392578	10912.769531
1369.347656	10963.091797
1368.301758	11063.593750
1367.255859	11039.769531
1366.208984	10939.487305
1365.163086	10889.416992
1364.116211	11178.545898
1363.069336	11212.027344
1362.022461	11152.378906
1360.974609	11193.012695
1359.927734	11226.468750
1358.879883	11193.099609
1357.832031	11090.561523
1356.783203	11312.436523
1355.735352	11405.451172
1354.686523	11507.961914
1353.637695	11619.962891
1352.588867	11567.484375
1351.539063	12124.967773
1350.490234	12227.238281
1349.440430	12429.492188
1348.390625	12726.904297
1347.339844	12909.921875
1346.290039	13197.586914
1345.239258	13506.545898
1344.188477	13915.295898
1343.137695	13881.456055
1342.085938	14354.163086
1341.034180	14717.300781
1339.982422	14697.573242
1338.930664	15065.238281
1337.878906	14907.630859
1336.826172	15241.836914
1335.773438	15464.272461
1334.720703	15475.273438
1333.667969	15595.477539
1332.614258	15575.587891
1331.561523	15066.844727
1330.507813	14959.286133
1329.453125	15039.166992
1328.399414	15119.013672
1327.344727	14933.261719
1326.290039	14823.445313
1325.235352	14412.670898
1324.180664	14404.901367
1323.125000	14382.919922
1322.070313	14225.935547
1321.014648	14092.697266
1319.958008	14205.747070
1318.902344	14018.123047
1317.845703	13615.213867
1316.789063	13619.448242
1315.732422	13465.181641
1314.675781	13131.228516
1313.618164	12910.917969
1312.560547	12775.808594
1311.502930	12361.845703
1310.445313	12163.101563
1309.386719	11877.022461
1308.329102	11555.630859
1307.270508	11236.735352
1306.210938	10939.223633
1305.152344	10823.606445
1304.092773	10743.440430
1303.033203	10604.316406
1301.973633	10269.438477
1300.914063	10208.306641
1299.853516	9970.336914
1298.792969	10064.899414
1297.732422	9869.488281
1296.671875	9893.329102
1295.611328	9570.801758
1294.549805	9526.379883
1293.488281	9701.007813
1292.426758	9574.162109
1291.364258	9207.241211
1290.302734	9379.470703
1289.240234	9492.796875
1288.177734	9344.924805
1287.114258	9437.039063
1286.051758	9305.701172
1284.988281	9155.608398
1283.924805	9268.859375
1282.861328	9224.595703
1281.796875	9279.039063
1280.732422	9495.555664
1279.667969	9369.065430
1278.603516	9407.003906
1277.539063	9374.493164
1276.473633	9353.732422
1275.408203	9480.824219
1274.342773	9495.241211
1273.277344	9390.019531
1272.210938	9592.068359
1271.145508	9559.555664
1270.079102	9487.204102
1269.011719	9360.975586
1267.945313	9523.021484
1266.877930	9528.033203
1265.810547	9343.317383
1264.743164	9076.716797
1263.674805	9231.659180
1262.607422	9033.076172
1261.539063	8932.869141
1260.470703	8928.635742
1259.401367	8863.581055
1258.333008	8945.898438
1257.263672	8604.947266
1256.194336	8666.242188
1255.125000	8461.057617
1254.054688	8491.977539
1252.985352	8375.695313
1251.915039	8366.910156
1250.843750	8309.085938
1249.773438	8300.316406
1248.702148	8335.903320
1247.630859	8341.133789
1246.559570	8173.694336
1245.488281	8092.640625
1244.416016	8144.564941
1243.343750	8140.501953
1242.271484	8269.327148
1241.199219	8008.843262
1240.125977	8065.399414
1239.053711	8133.580078
1237.980469	8206.389648
1236.906250	8192.999023
1235.833008	8291.375977
1234.758789	8205.807617
1233.684570	8055.107910
1232.610352	8039.431641
1231.536133	8067.962891
1230.460938	8152.303223
1229.385742	8231.956055
1228.310547	8113.956543
1227.235352	8107.578613
1226.159180	8143.033691
1225.083008	8015.833008
1224.006836	8176.729492
1222.930664	8012.415039
1221.853516	8043.213867
1220.777344	8111.141602
1219.700195	8062.992188
1218.622070	8103.040527
1217.544922	8150.030273
1216.466797	8359.362305
1215.388672	8299.603516
1214.310547	8293.195313
1213.232422	8435.138672
1212.153320	8526.037109
1211.074219	8496.412109
1209.995117	8489.963867
1208.916016	8476.569336
1207.835938	8620.634766
1206.755859	8461.371094
1205.675781	8371.610352
1204.595703	8369.820313
1203.514648	8476.766602
1202.434570	8472.640625
1201.353516	8493.953125
1200.271484	8473.638672
1199.190430	8462.579102
1198.108398	8442.279297
1197.026367	8216.348633
1195.944336	8279.270508
1194.862305	8159.709473
1193.779297	8054.053711
1192.696289	8059.253906
1191.613281	8119.845215
1190.530273	7993.495605
1189.446289	7975.632324
1188.362305	7932.403809
1187.278320	7822.315918
1186.194336	7656.939941
1185.109375	7701.399902
1184.024414	7688.224609
1182.939453	7721.137207
1181.854492	7512.152832
1180.768555	7545.087891
1179.683594	7423.730469
1178.597656	7456.668945
1177.510742	7461.972168
1176.424805	7458.068359
1175.337891	7440.361816
1174.250977	7326.054688
1173.164063	7464.760742
1172.077148	7424.069824
1170.989258	7436.266113
1169.901367	7358.826660
1168.813477	7302.099121
1167.724609	7293.637207
1166.636719	7278.287598
1165.547852	7338.719727
1164.458984	7307.295898
1163.369141	7374.580078
1162.280273	7487.729492
1161.190430	7472.351563
1160.100586	7369.817383
1159.010742	7430.147949
1157.919922	7405.619629
1156.829102	7493.422363
1155.738281	7627.021973
1154.647461	7474.153809
1153.555664	7529.812012
1152.464844	7576.284668
1151.373047	7485.348633
1150.280273	7421.922852
1149.188477	7415.743652
1148.095703	7549.154297
1147.002930	7213.502930
1145.910156	7426.954590
1144.817383	7400.196289
1143.723633	7300.285645
1142.629883	7348.997559
1141.536133	7457.106934
1140.441406	7380.095703
1139.347656	7399.060059
1138.252930	7223.886719
1137.158203	7299.959961
1136.062500	7380.565430
1134.967773	7205.507813
1133.872070	7226.768066
1132.776367	7168.169922
1131.679688	7232.765137
1130.583984	7126.300781
1129.487305	7120.198730
1128.390625	7344.320801
1127.292969	7276.641602
1126.196289	7090.511719
1125.098633	7145.924805
1124.000977	7290.133789
1122.903320	7388.740234
1121.804688	7382.586426
1120.706055	7324.086426
1119.607422	7374.834961
1118.508789	7359.585938
1117.409180	7314.774414
1116.310547	7149.459473
1115.210938	7197.925781
1114.110352	7405.480957
1113.010742	7235.707031
1111.910156	7247.768555
1110.809570	7159.876953
1109.708984	7262.790039
1108.607422	7138.603027
1107.506836	7221.043945
1106.405273	7214.936035
1105.303711	7000.075684
1104.201172	7064.342773
1103.098633	7171.674805
1101.996094	7070.341797
1100.893555	7048.400391
1099.791016	6972.069336
1098.687500	6934.294922
1097.583984	6919.192383
1096.480469	6924.481934
1095.376953	6934.297363
1094.272461	7005.240234
1093.167969	7026.351074
1092.063477	6943.347656
1090.958008	7018.765625
1089.853516	6967.468750
1088.748047	7004.398438
1087.642578	7057.140137
1086.536133	7132.465332
1085.430664	7277.822754
1084.324219	7382.441406
1083.217773	7462.162598
1082.110352	7428.912598
1081.003906	7562.785156
1079.896484	7556.619141
1078.789063	7672.346191
1077.680664	7623.279297
1076.573242	7680.277344
1075.464844	7764.318848
1074.356445	7769.388672
1073.247070	7855.627441
1072.138672	7734.433594
1071.029297	7579.485840
1069.919922	7740.065918
1068.809570	7587.436035
1067.700195	7601.542969
1066.589844	7390.461426
1065.479492	7424.865723
1064.368164	7461.505371
1063.257813	7286.596680
1062.146484	7276.001953
1061.035156	7101.208984
1059.922852	7059.174805
1058.811523	7091.354004
1057.699219	7038.099609
1056.586914	7059.031738
1055.473633	7010.299805
1054.361328	6907.675781
1053.248047	6946.587891
1052.134766	6902.401855
1051.021484	6952.521484
1049.907227	6735.531250
1048.792969	6855.226563
1047.678711	6851.479004
1046.564453	6879.133789
1045.449219	6906.775391
1044.333984	6795.402832
1043.218750	6955.296875
1042.103516	6926.877930
1040.987305	6815.572266
1039.871094	6928.314941
1038.754883	6922.313477
1037.638672	6900.641113
1036.521484	7008.811523
1035.404297	6872.988770
1034.287109	6900.565430
1033.169922	7013.137207
1032.051758	6993.701660
1030.933594	6989.927246
1029.815430	6957.090820
1028.697266	7062.843262
1027.578125	6994.250977
1026.458984	7015.051758
1025.339844	6995.638184
1024.220703	7103.519531
1023.100586	7139.909180
1021.980469	7042.354492
1020.860352	7096.593262
1019.740234	7083.873535
1018.619141	7073.389160
1017.498047	7154.345215
1016.376953	7074.729004
1015.255859	7057.563965
1014.133789	7149.611816
1013.011719	7081.187988
1011.889648	7092.991699
1010.767578	7086.971191
1009.644531	7100.993652
1008.521484	7355.440918
1007.398438	7131.243164
1006.274414	7054.009766
1005.151367	7136.991699
1004.027344	7122.068848
1002.902344	7147.179688
1001.778320	7214.521484
1000.653320	7088.450195
999.528320	7251.332031
998.403320	6980.890625
997.278320	7059.312988
996.152344	7102.167480
995.026367	7102.815918
993.900391	7132.321289
992.773438	7064.162109
991.646484	7151.351563
990.519531	7167.514648
989.392578	7205.848633
988.265625	7255.251465
987.137695	7271.378906
986.009766	7238.737793
984.881836	7476.450684
983.752930	7335.222168
982.624023	7302.586426
981.495117	7305.395508
980.366211	7383.476563
979.236328	7262.312500
978.106445	7123.497559
976.976563	7248.026855
975.846680	7310.564941
974.715820	7202.790527
973.585938	7037.577637
972.454102	7091.277344
971.323242	6866.491211
970.191406	7021.840820
969.060547	6940.755371
967.927734	7034.179688
966.795898	6858.180664
965.663086	6925.089355
964.530273	7150.876465
963.397461	7219.896484
962.264648	7304.327148
961.130859	7287.262695
959.997070	7395.895508
958.863281	7414.090820
957.729492	7269.172852
956.594727	7512.156250
955.459961	7541.327148
954.325195	7325.990723
953.189453	7251.687500
952.053711	7252.273438
950.917969	7184.621582
949.782227	7035.574707
948.646484	7005.403809
947.509766	6885.057617
946.373047	7052.861328
945.235352	6897.377441
944.098633	6739.764648
942.960938	6758.040039
941.823242	6883.972168
940.685547	6741.843262
939.546875	6854.543457
938.408203	6833.250977
937.269531	6919.536133
936.129883	7001.392578
934.991211	6933.999023
933.851563	6939.031250
932.711914	6946.253418
931.571289	7017.064453
930.431641	7061.534668
929.291016	7132.286621
928.149414	7159.179199
927.008789	7052.416016
925.867188	7267.685547
924.725586	7047.070313
923.583984	7036.735352
922.441406	6971.681641
921.299805	6902.279785
920.157227	7064.829102
919.013672	6778.879395
917.871094	6902.017090
916.727539	6845.809082
915.583984	6647.537598
914.439453	6619.822266
913.295898	6745.067871
912.151367	6693.312012
911.006836	6748.595215
909.861328	6664.107910
908.716797	6813.242188
907.571289	6792.070801
906.424805	6644.349121
905.279297	6706.123535
904.132813	6708.980469
902.986328	6716.196289
901.839844	6651.465820
900.692383	6649.971680
899.545898	6655.015625
898.398438	6588.161621
897.250000	6599.750000
896.102539	6718.037598
894.954102	6690.401855
893.805664	6621.420898
892.656250	6639.518066
891.507813	6546.645996
890.358398	6682.210938
889.208984	6598.068848
888.058594	6596.584473
886.908203	6640.748047
885.758789	6615.347656
884.607422	6442.211426
883.457031	6512.445801
882.305664	6502.291992
881.154297	6563.794922
880.002930	6453.776367
878.850586	6482.707031
877.698242	6429.170410
876.545898	6460.261719
875.393555	6495.675781
874.240234	6520.231445
873.086914	6397.361328
871.933594	6489.115723
870.780273	6422.645508
869.625977	6380.035156
868.471680	6330.945801
867.317383	6409.637695
866.162109	6410.355957
865.007813	6566.913086
863.852539	6552.446777
862.696289	6550.967285
861.541016	6495.413574
860.384766	6519.895996
859.228516	6423.295410
858.072266	6547.211426
856.915039	6387.977539
855.757813	6535.610352
854.600586	6296.528320
853.442383	6428.997070
852.285156	6589.473633
851.126953	6553.445801
849.968750	6534.698730
848.809570	6548.323730
847.650391	6441.143555
846.491211	6489.288086
845.332031	6479.194824
844.171875	6421.681152
843.012695	6523.675293
841.851563	6470.485840
840.691406	6544.416992
839.530273	6411.559082
838.369141	6526.379883
837.208008	6387.126953
836.046875	6445.941895
834.884766	6435.874023
833.722656	6501.104004
832.560547	6521.138184
831.397461	6416.445801
830.234375	6344.047363
829.071289	6637.063477
827.908203	6405.634277
826.744141	6462.185547
825.580078	6374.805664
824.416016	6354.032715
823.251953	6593.039551
822.086914	6426.271484
820.921875	6495.626953
819.756836	6517.751465
818.590820	6567.749023
817.425781	6394.702148
816.259766	6618.363770
815.092773	6608.286133
813.926758	6499.635742
812.759766	6410.316406
811.592773	6346.741211
810.424805	6503.770508
809.257813	6393.099121
808.089844	6344.553223
806.920898	6396.611328
805.752930	6446.505859
804.583984	6423.648438
803.415039	6351.613281
802.246094	6506.249023
801.076172	6410.712891
799.906250	6390.019531
798.736328	6433.434082
797.566406	6395.654297
796.395508	6573.594238
795.224609	6478.148926
794.053711	6564.195801
792.881836	6584.041992
791.710938	6480.123047
790.538086	6704.769531
789.366211	6867.462891
788.194336	6729.432617
787.021484	6975.184570
785.848633	6960.806152
784.674805	6852.678223
783.500977	6834.072754
782.327148	6947.524902
781.153320	6811.790527
779.979492	6820.880371
778.804688	6646.925293
777.629883	6770.953613
776.454102	6665.165039
775.279297	6627.485840
774.103516	6738.673340
772.927734	6728.630859
771.750977	6559.182129
770.575195	6485.434570
769.398438	6660.285645
768.220703	6747.972168
767.043945	6693.342285
765.866211	6768.241699
764.688477	6762.449219
763.510742	6852.152344
762.332031	6912.111328
761.153320	7114.156250
759.974609	7341.555176
758.794922	7392.878906
757.616211	7620.108887
756.436523	7940.477051
755.255859	8317.902344
754.076172	8913.327148
752.895508	9383.535156
751.714844	10266.382813
750.533203	11136.126953
749.352539	12263.652344
748.170898	13204.474609
746.988281	13960.834961
745.806641	14979.083008
744.624023	15362.570313
743.441406	15678.238281
742.258789	15860.619141
741.075195	15831.630859
739.891602	15920.946289
738.708008	16384.025391
737.523438	17043.250000
736.339844	17678.951172
735.155273	18443.095703
733.969727	18715.269531
732.785156	18894.500000
731.599609	18818.460938
730.414063	17991.828125
729.227539	16668.083984
728.041992	15172.125000
726.855469	13784.312500
725.667969	12325.512695
724.481445	11090.625977
723.293945	10047.914063
722.106445	9291.976563
720.918945	8784.731445
719.730469	8473.404297
718.541992	8172.737305
717.353516	7769.152344
716.164063	7458.270996
714.975586	7425.024414
713.786133	7248.874512
712.595703	7116.931152
711.406250	7079.582520
