#Wave		#Intensity
2109.007813	10662.818359
2107.496094	10824.902344
2105.984375	10648.937500
2104.470703	10683.005859
2102.958984	10844.328125
2101.445313	10532.968750
2099.933594	10502.607422
2098.419922	10705.159180
2096.906250	10623.579102
2095.390625	10329.047852
2093.876953	10531.506836
2092.361328	10395.555664
2090.845703	10470.863281
2089.332031	10438.911133
2087.814453	10509.229492
2086.298828	10482.230469
2084.783203	10338.194336
2083.265625	10316.188477
2081.748047	10350.218750
2080.230469	10231.017578
2078.712891	10337.526367
2077.195313	10080.047852
2075.677734	10286.977539
2074.158203	10176.122070
2072.638672	10221.660156
2071.119141	10092.767578
2069.599609	10228.780273
2068.080078	10282.500000
2066.560547	10099.415039
2065.039063	9957.508789
2063.517578	10152.603516
2061.996094	10073.189453
2060.474609	10179.458984
2058.953125	10022.874023
2057.429688	10117.612305
2055.908203	10072.753906
2054.384766	10068.951172
2052.861328	10097.973633
2051.337891	10040.021484
2049.814453	10136.295898
2048.289063	9917.630859
2046.765625	10194.261719
2045.240234	9915.021484
2043.714844	9960.429688
2042.189453	10123.803711
2040.664063	9984.015625
2039.136719	9986.792969
2037.609375	10082.913086
2036.083984	10002.166016
2034.556641	10073.687500
2033.029297	9996.250000
2031.500000	9917.209961
2029.972656	9978.888672
2028.443359	9919.511719
2026.914063	10049.840820
2025.386719	10127.800781
2023.855469	9994.877930
2022.326172	10139.814453
2020.796875	10088.635742
2019.265625	10088.114258
2017.734375	10084.327148
2016.203125	9976.046875
2014.671875	9970.652344
2013.140625	9893.451172
2011.607422	10043.087891
2010.076172	9977.322266
2008.542969	9942.574219
2007.009766	10106.780273
2005.476563	10042.673828
2003.943359	10004.673828
2002.408203	9992.763672
2000.875000	10029.736328
1999.339844	9988.505859
1997.804688	10136.206055
1996.269531	10037.981445
1994.732422	10016.309570
1993.197266	10004.411133
1991.660156	10077.131836
1990.123047	10211.640625
1988.585938	10185.069336
1987.048828	10108.099609
1985.511719	10000.271484
1983.972656	10006.271484
1982.435547	10189.404297
1980.896484	9797.294922
1979.357422	10009.634766
1977.818359	9940.918945
1976.279297	10073.574219
1974.738281	9922.082031
1973.197266	10009.240234
1971.658203	9992.508789
1970.117188	10136.396484
1968.576172	9936.359375
1967.033203	9887.219727
1965.492188	10091.026367
1963.949219	9884.641602
1962.406250	10034.880859
1960.863281	9976.040039
1959.320313	9959.342773
1957.777344	9968.566406
1956.232422	9846.625977
1954.689453	9902.816406
1953.144531	9868.343750
1951.599609	10219.020508
1950.054688	10017.854492
1948.507813	10085.283203
1946.962891	9911.722656
1945.416016	9988.845703
1943.869141	9930.150391
1942.322266	9968.448242
1940.775391	9940.481445
1939.228516	10054.688477
1937.679688	9970.185547
1936.132813	9934.161133
1934.583984	9969.188477
1933.035156	10044.552734
1931.486328	9868.138672
1929.935547	10006.415039
1928.386719	9909.123047
1926.835938	9869.931641
1925.285156	9956.522461
1923.734375	10086.601563
1922.183594	9974.870117
1920.632813	9840.625000
1919.080078	9959.368164
1917.527344	9791.359375
1915.976563	9906.841797
1914.423828	9840.344727
1912.869141	9814.116211
1911.316406	9841.006836
1909.761719	9949.944336
1908.208984	9949.447266
1906.654297	9931.258789
1905.099609	9816.600586
1903.544922	9930.271484
1901.988281	9793.159180
1900.433594	9866.614258
1898.876953	9843.641602
1897.320313	9782.126953
1895.763672	10040.217773
1894.207031	9991.532227
1892.648438	9830.500977
1891.091797	10032.244141
1889.533203	9860.039063
1887.974609	9814.640625
1886.416016	9979.369141
1884.857422	10075.076172
1883.298828	9843.687500
1881.738281	9928.161133
1880.177734	9954.908203
1878.617188	9859.876953
1877.056641	9734.450195
1875.496094	9846.100586
1873.935547	9885.650391
1872.373047	9776.305664
1870.810547	9806.249023
1869.248047	9791.375977
1867.685547	9906.093750
1866.123047	9911.998047
1864.560547	9765.980469
1862.996094	9746.331055
1861.431641	10035.193359
1859.867188	9949.969727
1858.302734	10024.562500
1856.738281	9937.779297
1855.171875	9929.291016
1853.607422	9935.177734
1852.041016	9856.450195
1850.474609	9913.423828
1848.908203	9959.203125
1847.341797	9926.786133
1845.773438	10034.751953
1844.207031	10023.063477
1842.638672	10049.646484
1841.070313	9972.601563
1839.501953	10007.152344
1837.931641	9926.960938
1836.363281	9994.959961
1834.792969	9881.357422
1833.222656	9970.038086
1831.652344	9877.184570
1830.082031	10037.455078
1828.511719	10119.679688
1826.941406	10166.865234
1825.369141	9907.021484
1823.796875	10165.752930
1822.224609	10020.501953
1820.652344	10010.437500
1819.078125	10122.758789
1817.505859	10042.757813
1815.931641	10053.346680
1814.357422	10060.753906
1812.783203	10123.739258
1811.208984	10075.558594
1809.634766	10062.319336
1808.058594	10152.242188
1806.484375	10026.335938
1804.908203	10094.018555
1803.332031	10052.236328
1801.753906	10151.597656
1800.177734	10024.210938
1798.601563	10134.630859
1797.023438	10051.670898
1795.445313	10165.206055
1793.867188	10180.483398
1792.289063	10141.908203
1790.708984	10057.432617
1789.130859	10098.049805
1787.550781	10186.129883
1785.970703	10242.525391
1784.390625	10330.536133
1782.810547	10320.446289
1781.228516	10266.082031
1779.646484	10146.918945
1778.066406	10255.421875
1776.484375	10363.879883
1774.902344	10428.050781
1773.318359	10291.575195
1771.736328	10374.685547
1770.152344	10350.387695
1768.568359	10296.104492
1766.984375	10434.401367
1765.400391	10378.544922
1763.816406	10453.657227
1762.230469	10292.136719
1760.646484	10286.808594
1759.060547	10462.797852
1757.474609	10388.075195
1755.888672	10420.551758
1754.300781	10456.166016
1752.714844	10570.531250
1751.126953	10574.596680
1749.539063	10471.582031
1747.951172	10477.240234
1746.363281	10566.317383
1744.775391	10468.089844
1743.185547	10624.784180
1741.595703	10595.795898
1740.007813	10667.471680
1738.416016	10647.919922
1736.826172	10642.524414
1735.236328	10753.434570
1733.644531	10694.591797
1732.052734	10777.164063
1730.462891	10837.711914
1728.869141	10896.663086
1727.277344	11012.109375
1725.685547	10874.786133
1724.091797	10850.514648
1722.498047	11083.572266
1720.904297	11191.035156
1719.310547	11210.623047
1717.716797	11013.815430
1716.121094	11168.253906
1714.527344	11289.711914
1712.931641	11321.796875
1711.335938	11400.868164
1709.740234	11553.524414
1708.142578	11381.946289
1706.546875	11572.118164
1704.949219	11472.614258
1703.351563	11573.477539
1701.753906	11678.991211
1700.156250	11649.922852
1698.558594	11627.123047
1696.958984	11707.536133
1695.359375	11723.816406
1693.759766	11702.576172
1692.160156	11973.572266
1690.560547	11889.790039
1688.960938	11870.087891
1687.359375	11900.368164
1685.757813	12133.616211
1684.156250	12135.727539
1682.554688	12140.958008
1680.953125	12347.478516
1679.349609	12422.863281
1677.748047	12334.443359
1676.144531	12542.347656
1674.541016	12681.563477
1672.937500	12867.482422
1671.332031	13025.269531
1669.728516	13229.731445
1668.123047	13496.416016
1666.517578	13624.375977
1664.912109	13900.205078
1663.306641	13884.799805
1661.701172	14163.567383
1660.093750	14409.537109
1658.486328	14898.102539
1656.878906	15283.799805
1655.271484	15538.703125
1653.664063	15882.120117
1652.056641	15956.468750
1650.447266	16301.202148
1648.837891	16614.712891
1647.228516	16580.113281
1645.619141	17034.763672
1644.009766	17135.181641
1642.398438	17164.140625
1640.789063	17671.146484
1639.177734	18153.107422
1637.566406	18467.300781
1635.955078	18725.519531
1634.341797	19456.626953
1632.730469	20021.517578
1631.117188	20378.447266
1629.503906	20853.009766
1627.890625	21327.369141
1626.277344	22021.507813
1624.662109	22391.640625
1623.048828	22744.582031
1621.433594	23216.580078
1619.818359	23567.642578
1618.203125	23841.179688
1616.587891	23911.914063
1614.970703	24242.490234
1613.353516	24484.771484
1611.738281	24794.982422
1610.121094	25077.230469
1608.501953	25683.923828
1606.884766	26223.912109
1605.267578	26395.984375
1603.648438	26886.160156
1602.029297	27596.949219
1600.410156	28253.398438
1598.791016	28358.509766
1597.169922	28164.183594
1595.550781	28178.234375
1593.929688	28041.101563
1592.308594	27612.539063
1590.687500	27819.431641
1589.064453	27744.121094
1587.443359	27702.748047
1585.820313	27670.636719
1584.197266	27507.585938
1582.574219	27743.533203
1580.951172	27580.531250
1579.328125	28138.140625
1577.703125	27888.919922
1576.080078	28089.181641
1574.455078	27813.916016
1572.830078	27343.400391
1571.203125	27339.091797
1569.578125	27431.656250
1567.951172	27490.355469
1566.324219	27532.123047
1564.697266	27383.322266
1563.070313	27114.750000
1561.443359	27115.091797
1559.816406	26716.154297
1558.187500	26948.414063
1556.558594	26807.562500
1554.929688	26586.964844
1553.300781	26774.599609
1551.669922	26686.027344
1550.041016	26763.128906
1548.410156	26455.320313
1546.779297	27121.125000
1545.148438	26595.718750
1543.517578	26787.695313
1541.884766	26302.417969
1540.251953	26048.636719
1538.621094	25782.710938
1536.988281	25403.597656
1535.353516	25000.152344
1533.720703	24789.710938
1532.085938	24395.748047
1530.453125	24243.654297
1528.818359	24018.210938
1527.183594	23597.136719
1525.546875	23703.667969
1523.912109	23232.400391
1522.275391	22602.408203
1520.640625	22670.884766
1519.003906	22146.675781
1517.365234	21879.248047
1515.728516	21552.386719
1514.091797	21343.205078
1512.453125	20914.345703
1510.814453	20835.080078
1509.175781	20650.589844
1507.537109	20240.453125
1505.896484	20265.068359
1504.257813	20028.980469
1502.617188	20070.394531
1500.976563	19834.447266
1499.335938	20052.609375
1497.693359	19895.968750
1496.052734	19751.580078
1494.410156	19633.132813
1492.767578	19561.923828
1491.125000	19770.769531
1489.482422	19515.451172
1487.837891	19639.025391
1486.195313	19357.986328
1484.550781	19473.933594
1482.906250	19355.714844
1481.261719	19178.267578
1479.617188	19329.125000
1477.970703	19224.679688
1476.324219	19229.642578
1474.677734	18971.882813
1473.031250	19039.144531
1471.384766	19223.255859
1469.738281	18930.753906
1468.089844	18873.556641
1466.441406	18678.339844
1464.792969	18792.597656
1463.144531	18783.986328
1461.496094	18848.140625
1459.845703	18659.154297
1458.197266	18856.654297
1456.546875	18920.748047
1454.896484	19034.794922
1453.244141	19027.646484
1451.593750	18791.880859
1449.941406	18970.966797
1448.291016	18824.601563
1446.638672	18626.855469
1444.984375	18515.416016
1443.332031	18506.865234
1441.679688	18699.417969
1440.025391	18675.710938
1438.371094	18713.978516
1436.716797	18575.435547
1435.062500	18841.824219
1433.406250	18659.507813
1431.750000	18685.658203
1430.095703	18883.908203
1428.439453	18973.390625
1426.781250	18966.251953
1425.125000	18956.095703
1423.466797	18858.453125
1421.810547	18735.214844
1420.152344	18738.679688
1418.494141	18695.412109
1416.833984	18943.035156
1415.175781	18822.892578
1413.515625	19002.585938
1411.855469	19194.248047
1410.195313	19226.210938
1408.535156	19480.968750
1406.875000	19553.488281
1405.212891	19639.519531
1403.550781	19802.242188
1401.888672	19880.656250
1400.226563	19871.812500
1398.564453	19926.117188
1396.900391	19863.148438
1395.238281	19463.564453
1393.574219	19418.750000
1391.910156	19575.250000
1390.244141	19643.068359
1388.580078	19619.261719
1386.914063	19338.753906
1385.248047	19522.142578
1383.582031	19057.205078
1381.916016	19411.599609
1380.250000	19465.855469
1378.582031	19268.154297
1376.916016	19443.853516
1375.248047	19313.693359
1373.578125	19260.015625
1371.910156	19676.818359
1370.242188	19277.054688
1368.572266	19536.417969
1366.902344	19503.693359
1365.232422	19337.751953
1363.562500	19216.779297
1361.890625	19027.029297
1360.220703	19004.910156
1358.548828	18896.048828
1356.876953	18811.160156
1355.205078	19150.886719
1353.531250	19015.156250
1351.859375	19347.212891
1350.185547	19637.289063
1348.511719	20030.300781
1346.837891	20397.751953
1345.164063	20666.498047
1343.488281	20782.869141
1341.812500	20812.630859
1340.138672	21025.898438
1338.460938	21070.505859
1336.785156	21188.167969
1335.109375	21007.566406
1333.431641	20964.189453
1331.753906	20522.890625
1330.076172	20265.062500
1328.398438	20318.705078
1326.720703	20330.619141
1325.041016	20400.599609
1323.361328	20717.681641
1321.681641	20486.876953
1320.001953	20570.164063
1318.322266	20720.361328
1316.640625	20628.037109
1314.960938	20583.337891
1313.279297	20306.716797
1311.597656	20290.347656
1309.914063	20028.769531
1308.232422	19997.605469
1306.548828	19892.181641
1304.865234	19755.611328
1303.181641	19745.310547
1301.498047	19550.935547
1299.814453	19524.355469
1298.128906	19303.400391
1296.443359	19082.541016
1294.757813	19177.697266
1293.072266	18820.537109
1291.386719	18718.527344
1289.699219	18463.894531
1288.011719	18510.195313
1286.324219	18329.794922
1284.636719	18004.312500
1282.949219	17984.037109
1281.259766	17599.548828
1279.572266	17680.025391
1277.882813	17471.880859
1276.193359	17288.980469
1274.501953	17362.070313
1272.812500	17238.427734
1271.121094	17182.855469
1269.429688	17177.566406
1267.738281	17235.830078
1266.046875	17140.392578
1264.353516	16932.722656
1262.662109	16741.390625
1260.968750	16774.589844
1259.275391	16493.318359
1257.582031	16346.484375
1255.886719	16261.692383
1254.193359	16280.208008
1252.498047	16281.014648
1250.802734	16162.370117
1249.107422	16210.377930
1247.410156	15919.339844
1245.714844	15840.640625
1244.017578	15909.309570
1242.320313	15889.565430
1240.623047	15915.481445
1238.925781	15633.658203
1237.226563	15563.934570
1235.527344	15327.935547
1233.828125	15502.557617
1232.128906	15196.063477
1230.429688	15141.199219
1228.728516	15331.916016
1227.029297	14996.258789
1225.328125	14944.411133
1223.626953	15107.121094
1221.923828	14852.533203
1220.222656	14749.341797
1218.519531	14737.237305
1216.816406	14456.472656
1215.113281	14469.387695
1213.410156	14312.071289
1211.707031	14398.367188
1210.001953	14236.733398
1208.296875	14122.097656
1206.591797	14196.644531
1204.886719	14011.707031
1203.179688	13911.849609
1201.474609	14020.086914
1199.767578	14046.244141
1198.060547	13901.041992
1196.353516	13971.136719
1194.644531	13856.753906
1192.937500	13792.180664
1191.228516	13970.524414
1189.519531	13838.660156
1187.810547	13967.184570
1186.099609	13844.150391
1184.390625	13775.259766
1182.679688	13788.245117
1180.968750	13636.104492
1179.257813	13723.618164
1177.544922	13705.930664
1175.833984	13863.477539
1174.121094	13766.927734
1172.408203	13813.459961
1170.695313	13556.444336
1168.982422	13681.781250
1167.267578	13604.315430
1165.552734	13198.773438
1163.837891	13434.905273
1162.123047	13227.816406
1160.408203	13058.708008
1158.691406	12866.363281
1156.976563	12727.999023
1155.259766	12576.588867
1153.541016	12449.998047
1151.824219	12503.961914
1150.107422	12239.186523
1148.388672	12256.795898
1146.669922	12115.838867
1144.951172	12182.913086
1143.230469	12076.929688
1141.511719	12146.887695
1139.791016	11865.103516
1138.070313	12020.802734
1136.349609	11842.311523
1134.628906	11453.308594
1132.906250	11497.185547
1131.185547	11572.978516
1129.462891	11584.875977
1127.740234	11355.892578
1126.015625	11356.225586
1124.292969	11080.982422
1122.568359	11032.073242
1120.843750	11097.713867
1119.119141	10898.082031
1117.394531	10837.650391
1115.667969	10619.332031
1113.941406	10512.639648
1112.214844	10607.279297
1110.488281	10402.188477
1108.761719	10538.783203
1107.033203	10409.047852
1105.306641	10435.623047
1103.578125	10362.378906
1101.849609	10338.334961
1100.119141	10285.385742
1098.390625	10359.660156
1096.660156	10212.793945
1094.929688	10269.710938
1093.199219	10420.493164
1091.468750	10181.283203
1089.736328	10047.581055
1088.003906	10215.628906
1086.273438	10158.465820
1084.539063	10036.399414
1082.806641	9921.599609
1081.074219	10168.839844
1079.339844	10045.409180
1077.605469	10058.978516
1075.871094	10121.541992
1074.134766	10028.460938
1072.400391	10006.008789
1070.664063	10035.413086
1068.927734	9915.054688
1067.191406	9860.970703
1065.455078	9755.096680
1063.716797	9921.223633
1061.978516	9606.789063
1060.240234	9581.584961
1058.501953	9639.791016
1056.763672	9447.828125
1055.023438	9342.187500
1053.283203	9513.922852
1051.542969	9389.637695
1049.802734	9282.643555
1048.062500	9345.139648
1046.320313	9420.526367
1044.578125	9355.219727
1042.835938	9284.201172
1041.093750	9517.357422
1039.351563	9300.033203
1037.607422	9389.679688
1035.863281	9195.420898
1034.119141	9366.747070
1032.375000	9431.952148
1030.628906	9286.525391
1028.884766	9411.875000
1027.138672	9438.357422
1025.392578	9429.036133
1023.646484	9383.933594
1021.898438	9464.780273
1020.152344	9313.816406
1018.404297	9457.577148
1016.656250	9399.634766
1014.906250	9447.516602
1013.158203	9492.517578
1011.408203	9340.287109
1009.658203	9140.977539
1007.908203	9318.854492
1006.158203	9303.860352
1004.406250	9226.051758
1002.656250	9368.098633
1000.904297	9304.580078
999.150391	9425.140625
997.398438	9237.537109
995.646484	9165.532227
993.892578	9129.204102
992.138672	8958.900391
990.384766	9160.628906
988.628906	9024.588867
986.875000	9080.912109
985.119141	9088.789063
983.363281	9029.742188
981.607422	9236.911133
979.849609	9197.779297
978.093750	9107.443359
976.335938	9017.148438
974.578125	9104.664063
972.820313	9064.173828
971.060547	8985.320313
969.300781	9254.690430
967.542969	9265.340820
965.781250	9280.247070
964.021484	9330.649414
962.261719	9311.455078
960.500000	9404.412109
958.738281	9606.603516
956.976563	9617.152344
955.214844	9762.457031
953.451172	9564.484375
951.687500	9488.541016
949.923828	9446.653320
948.160156	9329.669922
946.396484	9181.568359
944.630859	9107.197266
942.865234	9013.031250
941.099609	9078.907227
939.333984	9165.986328
937.568359	9073.285156
935.800781	9054.202148
934.033203	9101.614258
932.265625	9187.189453
930.498047	9278.379883
928.730469	9126.382813
926.960938	9063.493164
925.191406	9034.542969
923.421875	8954.750000
921.652344	9050.120117
919.880859	8944.943359
918.109375	9006.390625
916.337891	8959.134766
914.566406	8910.490234
912.794922	8720.798828
911.021484	8552.350586
909.248047	8746.354492
907.474609	8517.360352
905.701172	8581.619141
903.927734	8559.895508
902.152344	8563.539063
900.376953	8636.189453
898.601563	8655.299805
896.826172	8589.936523
895.050781	8689.268555
893.273438	8694.280273
891.496094	8704.915039
889.718750	8639.597656
887.939453	8556.031250
886.162109	8608.860352
884.382813	8532.365234
882.603516	8602.036133
880.824219	8583.171875
879.044922	8421.062500
877.263672	8434.542969
875.482422	8206.563477
873.701172	8058.687500
871.919922	8107.318848
870.138672	8161.537598
868.355469	8127.374512
866.572266	7996.477539
864.789063	8031.056152
863.005859	8146.905273
861.220703	8231.873047
859.435547	8061.847656
857.650391	8027.750488
855.865234	8156.090332
854.080078	8089.788574
852.292969	8066.902832
850.505859	8073.410156
848.718750	8106.492188
846.931641	8073.826172
845.144531	8130.661133
843.355469	8241.986328
841.566406	8274.995117
839.777344	8260.480469
837.988281	8208.256836
836.197266	8232.868164
834.408203	8130.407227
832.617188	8302.992188
830.824219	8313.605469
829.033203	8416.301758
827.240234	8238.563477
825.449219	8369.119141
