#Wave		#Intensity
2109.224609	11728.283203
2107.712891	11627.391602
2106.201172	11727.400391
2104.687500	11686.839844
2103.175781	11780.181641
2101.662109	11652.042969
2100.150391	11730.483398
2098.636719	11442.183594
2097.123047	11732.022461
2095.607422	11582.541016
2094.093750	11670.833008
2092.578125	11747.534180
2091.064453	11629.497070
2089.548828	11645.135742
2088.033203	11525.522461
2086.517578	11572.507813
2085.000000	11523.852539
2083.484375	11498.293945
2081.966797	11634.241211
2080.449219	11442.267578
2078.931641	11522.164063
2077.414063	11503.215820
2075.894531	11421.708984
2074.376953	11534.481445
2072.857422	11578.082031
2071.337891	11389.659180
2069.818359	11517.170898
2068.298828	11568.971680
2066.777344	11735.855469
2065.257813	11419.327148
2063.736328	11374.139648
2062.214844	11511.377930
2060.693359	11581.197266
2059.171875	11503.151367
2057.648438	11347.953125
2056.126953	11476.870117
2054.603516	11459.634766
2053.080078	11394.811523
2051.556641	11477.692383
2050.033203	11417.814453
2048.507813	11348.121094
2046.984375	11321.092773
2045.458984	11574.419922
2043.933594	11390.001953
2042.408203	11538.326172
2040.882813	11478.511719
2039.355469	11331.908203
2037.830078	11337.670898
2036.302734	11348.343750
2034.775391	11290.258789
2033.248047	11377.858398
2031.718750	11362.334961
2030.191406	11492.416016
2028.662109	11223.359375
2027.134766	11426.999023
2025.605469	11256.164063
2024.076172	11435.192383
2022.544922	11270.965820
2021.015625	11480.957031
2019.484375	11511.174805
2017.955078	11492.385742
2016.423828	11349.512695
2014.892578	11467.890625
2013.359375	11354.460938
2011.828125	11454.838867
2010.294922	11517.650391
2008.761719	11515.194336
2007.230469	11584.489258
2005.695313	11482.568359
2004.162109	11498.049805
2002.628906	11461.376953
2001.093750	11540.399414
1999.558594	11435.315430
1998.023438	11660.885742
1996.488281	11557.449219
1994.953125	11537.081055
1993.417969	11573.685547
1991.880859	11696.517578
1990.343750	11671.251953
1988.806641	11585.814453
1987.269531	11593.105469
1985.732422	11710.951172
1984.193359	11775.105469
1982.656250	11582.457031
1981.117188	11575.119141
1979.578125	11657.129883
1978.039063	11690.381836
1976.500000	11824.292969
1974.958984	11597.747070
1973.417969	11915.028320
1971.878906	11756.713867
1970.337891	11700.676758
1968.796875	11918.789063
1967.253906	11656.785156
1965.712891	11835.900391
1964.169922	11497.836914
1962.626953	11882.735352
1961.083984	11834.842773
1959.541016	11649.272461
1957.998047	11863.831055
1956.455078	11804.637695
1954.910156	11794.038086
1953.365234	11817.432617
1951.820313	11803.597656
1950.275391	11873.899414
1948.730469	12004.021484
1947.183594	11830.048828
1945.638672	11798.436523
1944.091797	11891.310547
1942.544922	11862.929688
1940.998047	11706.908203
1939.449219	11733.505859
1937.902344	11823.083008
1936.353516	11767.288086
1934.804688	11890.724609
1933.255859	11820.410156
1931.707031	11645.228516
1930.158203	11700.845703
1928.607422	11516.083984
1927.058594	11653.956055
1925.507813	11757.909180
1923.957031	11655.468750
1922.406250	11506.331055
1920.853516	11531.288086
1919.302734	11627.122070
1917.750000	11429.761719
1916.197266	11369.368164
1914.644531	11616.519531
1913.091797	11483.673828
1911.539063	11434.571289
1909.984375	11387.098633
1908.431641	11523.036133
1906.876953	11359.762695
1905.322266	11318.767578
1903.767578	11358.171875
1902.210938	11307.548828
1900.656250	11282.659180
1899.099609	11280.272461
1897.542969	11412.816406
1895.986328	11506.760742
1894.429688	11358.214844
1892.873047	11407.182617
1891.314453	11533.166016
1889.755859	11355.825195
1888.199219	11355.028320
1886.640625	11338.192383
1885.080078	11406.353516
1883.521484	11469.675781
1881.960938	11406.339844
1880.402344	11370.274414
1878.841797	11345.440430
1877.281250	11218.093750
1875.720703	11274.981445
1874.158203	11354.260742
1872.597656	11318.242188
1871.035156	11183.005859
1869.472656	11287.856445
1867.910156	11346.266602
1866.347656	11428.643555
1864.783203	11323.880859
1863.220703	11064.073242
1861.656250	11267.944336
1860.091797	11241.590820
1858.527344	11383.021484
1856.962891	11256.011719
1855.396484	11373.421875
1853.832031	11319.920898
1852.265625	11263.249023
1850.699219	11551.370117
1849.132813	11395.731445
1847.566406	11370.988281
1845.998047	11392.513672
1844.431641	11420.408203
1842.863281	11451.480469
1841.294922	11517.609375
1839.726563	11185.261719
1838.156250	11512.745117
1836.587891	11564.480469
1835.017578	11608.228516
1833.449219	11357.355469
1831.878906	11407.497070
1830.306641	11500.594727
1828.736328	11428.142578
1827.166016	11623.026367
1825.593750	11529.898438
1824.021484	11645.155273
1822.449219	11324.676758
1820.876953	11381.106445
1819.304688	11550.361328
1817.730469	11509.784180
1816.158203	11518.475586
1814.583984	11608.170898
1813.009766	11720.062500
1811.435547	11817.615234
1809.859375	11592.881836
1808.285156	11617.414063
1806.708984	11718.099609
1805.132813	11566.502930
1803.556641	11649.708008
1801.980469	11658.347656
1800.404297	11491.003906
1798.826172	11773.889648
1797.248047	11796.758789
1795.671875	11816.449219
1794.093750	11690.396484
1792.513672	11640.416016
1790.935547	11864.382813
1789.355469	11831.798828
1787.777344	11807.142578
1786.197266	11788.824219
1784.617188	11892.332031
1783.035156	11889.820313
1781.455078	11939.495117
1779.873047	11891.122070
1778.292969	11934.451172
1776.710938	12031.495117
1775.128906	11942.049805
1773.544922	11928.469727
1771.962891	11998.600586
1770.378906	11942.377930
1768.794922	12044.050781
1767.212891	11948.380859
1765.626953	11997.932617
1764.042969	12263.609375
1762.458984	12022.833008
1760.873047	11941.439453
1759.287109	12189.614258
1757.701172	12220.142578
1756.115234	12294.786133
1754.529297	12287.459961
1752.941406	12291.165039
1751.355469	12554.750977
1749.767578	12481.234375
1748.179688	12732.072266
1746.591797	12686.880859
1745.001953	12696.789063
1743.414063	12733.439453
1741.824219	12630.071289
1740.234375	12790.963867
1738.644531	12904.616211
1737.054688	12823.284180
1735.462891	12834.717773
1733.873047	12811.575195
1732.281250	12801.009766
1730.689453	12828.145508
1729.097656	12885.107422
1727.505859	13037.818359
1725.912109	13009.944336
1724.320313	13281.835938
1722.726563	13368.462891
1721.132813	13364.065430
1719.539063	13510.235352
1717.945313	13675.160156
1716.349609	13672.265625
1714.755859	13703.854492
1713.160156	13707.222656
1711.564453	14114.807617
1709.968750	14019.401367
1708.371094	14351.574219
1706.775391	14314.088867
1705.177734	14278.183594
1703.580078	14550.615234
1701.982422	14509.979492
1700.384766	14610.158203
1698.787109	14653.986328
1697.187500	14915.157227
1695.587891	14738.457031
1693.990234	15004.186523
1692.390625	15222.920898
1690.789063	15500.932617
1689.189453	15572.628906
1687.587891	15380.353516
1685.988281	15681.575195
1684.386719	15573.656250
1682.785156	16119.749023
1681.181641	16199.035156
1679.580078	16332.890625
1677.976563	16536.878906
1676.373047	16834.345703
1674.769531	17028.785156
1673.166016	17134.289063
1671.562500	17327.019531
1669.957031	17416.832031
1668.353516	17861.783203
1666.748047	18270.722656
1665.142578	18251.273438
1663.537109	18519.841797
1661.929688	18881.683594
1660.324219	19148.445313
1658.716797	19463.324219
1657.109375	19946.058594
1655.501953	20329.058594
1653.894531	20497.326172
1652.285156	20959.322266
1650.677734	21520.587891
1649.068359	21836.105469
1647.458984	22218.289063
1645.849609	22820.861328
1644.240234	23418.515625
1642.628906	23503.583984
1641.019531	23923.886719
1639.408203	24235.380859
1637.796875	24500.193359
1636.185547	24808.324219
1634.572266	24950.380859
1632.960938	25621.109375
1631.347656	26221.791016
1629.734375	26358.800781
1628.121094	26938.921875
1626.507813	27325.140625
1624.894531	27560.951172
1623.279297	28137.343750
1621.664063	28619.044922
1620.048828	29221.277344
1618.433594	29527.664063
1616.818359	30203.708984
1615.203125	31111.500000
1613.585938	31723.505859
1611.968750	32539.353516
1610.351563	32666.916016
1608.734375	33346.199219
1607.117188	33926.289063
1605.498047	34257.398438
1603.878906	34932.812500
1602.261719	35081.335938
1600.640625	35990.957031
1599.021484	36180.863281
1597.402344	36586.746094
1595.781250	36705.464844
1594.162109	37522.941406
1592.541016	37696.925781
1590.919922	38594.015625
1589.296875	38605.816406
1587.675781	38891.968750
1586.052734	39663.402344
1584.429688	39924.542969
1582.806641	40502.882813
1581.183594	40116.929688
1579.560547	40520.988281
1577.935547	40549.273438
1576.312500	40374.394531
1574.687500	40002.636719
1573.062500	39732.566406
1571.435547	40025.523438
1569.810547	40226.089844
1568.183594	40062.210938
1566.558594	40052.105469
1564.931641	39548.718750
1563.304688	40191.679688
1561.675781	40155.429688
1560.048828	40137.621094
1558.419922	39818.878906
1556.791016	39854.871094
1555.162109	39935.351563
1553.533203	39854.679688
1551.904297	39896.765625
1550.273438	39797.726563
1548.642578	39503.984375
1547.011719	39216.496094
1545.380859	38958.250000
1543.750000	38811.976563
1542.119141	38317.976563
1540.486328	38067.738281
1538.853516	37549.601563
1537.220703	36777.515625
1535.587891	36517.046875
1533.955078	36066.906250
1532.320313	35821.992188
1530.685547	35040.222656
1529.052734	35534.367188
1527.416016	34545.023438
1525.781250	34312.867188
1524.146484	34262.695313
1522.509766	33844.257813
1520.873047	33885.878906
1519.236328	33246.207031
1517.599609	33261.968750
1515.962891	32757.062500
1514.324219	32717.962891
1512.687500	32120.287109
1511.048828	31968.421875
1509.410156	31596.939453
1507.771484	31539.808594
1506.130859	31292.089844
1504.492188	31264.009766
1502.851563	31081.992188
1501.210938	31355.695313
1499.570313	31210.298828
1497.927734	31424.445313
1496.287109	31414.628906
1494.644531	31244.941406
1493.001953	31096.638672
1491.359375	31102.109375
1489.716797	30963.025391
1488.074219	30749.455078
1486.429688	30383.878906
1484.785156	30210.056641
1483.140625	29872.115234
1481.496094	29301.763672
1479.851563	29216.417969
1478.207031	29091.605469
1476.560547	28927.349609
1474.914063	29013.740234
1473.267578	29037.837891
1471.621094	28592.865234
1469.972656	28565.439453
1468.326172	28512.228516
1466.677734	28554.607422
1465.029297	28050.962891
1463.380859	28137.394531
1461.732422	28316.263672
1460.082031	28320.746094
1458.431641	28564.654297
1456.783203	28413.027344
1455.132813	28243.289063
1453.480469	28379.525391
1451.830078	28067.541016
1450.177734	27879.814453
1448.527344	27384.945313
1446.875000	26581.623047
1445.220703	26435.177734
1443.568359	26129.988281
1441.916016	25938.337891
1440.261719	25645.478516
1438.607422	25299.843750
1436.953125	25122.087891
1435.298828	24823.546875
1433.642578	24831.753906
1431.988281	24522.830078
1430.332031	24404.269531
1428.675781	24287.269531
1427.019531	23971.113281
1425.361328	23993.064453
1423.705078	24060.257813
1422.046875	23878.574219
1420.388672	24081.462891
1418.730469	24034.017578
1417.072266	23802.714844
1415.412109	23767.400391
1413.753906	23605.552734
1412.093750	23451.302734
1410.433594	23581.724609
1408.773438	23788.871094
1407.111328	23824.332031
1405.451172	24154.730469
1403.789063	24175.044922
1402.126953	24398.419922
1400.464844	24567.552734
1398.802734	24753.150391
1397.138672	24735.728516
1395.474609	24326.050781
1393.812500	24203.544922
1392.146484	24079.585938
1390.482422	23874.576172
1388.818359	23714.701172
1387.152344	23957.234375
1385.486328	23785.398438
1383.820313	24120.841797
1382.154297	24171.083984
1380.488281	24413.294922
1378.820313	24611.910156
1377.154297	24745.964844
1375.486328	24733.060547
1373.818359	24985.417969
1372.148438	25168.742188
1370.480469	25449.351563
1368.810547	25616.013672
1367.140625	25782.601563
1365.470703	25654.203125
1363.800781	26016.767578
1362.130859	25711.800781
1360.458984	25866.242188
1358.787109	26231.507813
1357.115234	25757.708984
1355.443359	25650.398438
1353.771484	25562.566406
1352.097656	25897.679688
1350.423828	26108.636719
1348.751953	26205.976563
1347.076172	26861.802734
1345.402344	27482.998047
1343.728516	27763.570313
1342.052734	28529.054688
1340.376953	29356.865234
1338.701172	29137.093750
1337.025391	29892.814453
1335.347656	29965.273438
1333.671875	30256.841797
1331.994141	30057.919922
1330.316406	29799.478516
1328.638672	30253.269531
1326.960938	30309.171875
1325.281250	29995.738281
1323.601563	30260.097656
1321.921875	29930.433594
1320.242188	30045.871094
1318.562500	29634.564453
1316.880859	29129.720703
1315.201172	28831.816406
1313.519531	28343.722656
1311.837891	27887.058594
1310.154297	27600.019531
1308.472656	26957.982422
1306.789063	26772.285156
1305.105469	26398.044922
1303.421875	26188.791016
1301.738281	26013.769531
1300.054688	25881.865234
1298.369141	26118.023438
1296.683594	25885.267578
1294.998047	25857.298828
1293.312500	25716.638672
1291.626953	25417.400391
1289.939453	25540.736328
1288.253906	25320.207031
1286.566406	25096.810547
1284.878906	24986.085938
1283.189453	24792.476563
1281.501953	24487.902344
1279.812500	24364.056641
1278.123047	24149.986328
1276.433594	23987.794922
1274.744141	23982.478516
1273.052734	23892.861328
1271.363281	24121.189453
1269.671875	23724.085938
1267.980469	23797.158203
1266.289063	23852.462891
1264.595703	23619.660156
1262.904297	23750.300781
1261.210938	23489.562500
1259.517578	23392.812500
1257.824219	23362.523438
1256.128906	23249.607422
1254.435547	23266.572266
1252.740234	22916.240234
1251.044922	22715.007813
1249.349609	22519.761719
1247.652344	22466.109375
1245.957031	22525.955078
1244.259766	22470.845703
1242.562500	21861.884766
1240.865234	22126.529297
1239.167969	21622.453125
1237.468750	21713.322266
1235.769531	21658.443359
1234.072266	21309.302734
1232.371094	21401.644531
1230.671875	21157.136719
1228.972656	21178.886719
1227.271484	20943.353516
1225.570313	20923.982422
1223.869141	20784.123047
1222.167969	20454.802734
1220.464844	20313.636719
1218.763672	20329.660156
1217.060547	20131.322266
1215.357422	20185.537109
1213.654297	20063.626953
1211.949219	20059.140625
1210.246094	19733.417969
1208.541016	19676.210938
1206.835938	19601.431641
1205.130859	19601.443359
1203.423828	19588.263672
1201.718750	19815.380859
1200.011719	19705.472656
1198.304688	19846.050781
1196.597656	20201.802734
1194.888672	20289.500000
1193.181641	20574.738281
1191.472656	20614.023438
1189.763672	20571.365234
1188.054688	20726.171875
1186.343750	20804.871094
1184.634766	20711.025391
1182.923828	20621.605469
1181.212891	20768.947266
1179.501953	20419.503906
1177.791016	20452.892578
1176.078125	20462.900391
1174.365234	20599.917969
1172.652344	20586.531250
1170.939453	20777.447266
1169.226563	20777.152344
1167.511719	20504.089844
1165.798828	20414.894531
1164.083984	20047.263672
1162.369141	19860.544922
1160.652344	19453.851563
1158.937500	19295.029297
1157.220703	18890.099609
1155.503906	18779.531250
1153.787109	18517.583984
1152.070313	18482.841797
1150.351563	18381.166016
1148.632813	18011.808594
1146.916016	18010.654297
1145.195313	18045.859375
1143.476563	17878.933594
1141.757813	17928.685547
1140.037109	17804.007813
1138.316406	17208.591797
1136.595703	17123.351563
1134.875000	16645.998047
1133.152344	16402.644531
1131.429688	16062.131836
1129.708984	15933.678711
1127.984375	15684.840820
1126.261719	15585.542969
1124.539063	15202.002930
1122.814453	15091.254883
1121.089844	14725.394531
1119.365234	14685.824219
1117.640625	14792.631836
1115.914063	14377.823242
1114.187500	14464.371094
1112.462891	14170.017578
1110.734375	14124.819336
1109.007813	14175.173828
1107.281250	14118.414063
1105.552734	14158.616211
1103.824219	14117.794922
1102.095703	14208.591797
1100.367188	14088.253906
1098.636719	13950.623047
1096.908203	13791.375000
1095.177734	13882.158203
1093.447266	13626.211914
1091.714844	13488.804688
1089.984375	13351.458984
1088.251953	13346.979492
1086.519531	13126.019531
1084.787109	13172.091797
1083.054688	13180.634766
1081.320313	13219.459961
1079.585938	13148.681641
1077.851563	13350.390625
1076.117188	13319.966797
1074.382813	13293.877930
1072.648438	13224.583008
1070.912109	13091.945313
1069.175781	13018.405273
1067.439453	12893.070313
1065.701172	12887.251953
1063.964844	12659.836914
1062.226563	12528.911133
1060.488281	12382.223633
1058.750000	12365.017578
1057.011719	12432.638672
1055.271484	12235.763672
1053.531250	12215.724609
1051.791016	12047.719727
1050.050781	12003.313477
1048.310547	12029.289063
1046.568359	12068.173828
1044.826172	12038.142578
1043.083984	12089.918945
1041.341797	12095.760742
1039.599609	12153.236328
1037.855469	12094.527344
1036.113281	12057.349609
1034.369141	11954.253906
1032.623047	11812.510742
1030.878906	11931.584961
1029.132813	11881.582031
1027.386719	11815.848633
1025.640625	11781.642578
1023.894531	11844.785156
1022.148438	11667.478516
1020.400391	11716.308594
1018.652344	11902.433594
1016.904297	11789.585938
1015.156250	11964.168945
1013.406250	12050.045898
1011.658203	11934.379883
1009.908203	11877.345703
1008.158203	12200.300781
1006.408203	12237.484375
1004.656250	12137.582031
1002.904297	12487.373047
1001.152344	12460.239258
999.400391	12534.420898
997.648438	12517.272461
995.896484	12180.674805
994.142578	12126.541992
992.388672	11894.247070
990.634766	11967.041016
988.878906	11690.717773
987.125000	11745.004883
985.369141	11928.865234
983.613281	11812.208008
981.857422	11728.344727
980.099609	11926.309570
978.343750	11983.319336
976.585938	12006.161133
974.828125	11821.348633
973.070313	11734.730469
971.310547	11832.951172
969.552734	11899.859375
967.792969	11918.424805
966.033203	11985.279297
964.273438	12120.273438
962.511719	11984.000977
960.750000	12255.209961
958.990234	12442.555664
957.226563	12516.300781
955.464844	12450.988281
953.703125	12513.348633
951.939453	12236.791016
950.175781	12154.573242
948.412109	12398.367188
946.648438	12197.123047
944.882813	11980.388672
943.117188	11990.360352
941.351563	11731.291992
939.585938	11666.286133
937.820313	11660.751953
936.052734	11563.244141
934.285156	11409.195313
932.517578	11286.332031
930.750000	11268.160156
928.982422	11450.736328
927.212891	11360.452148
925.443359	11281.512695
923.673828	11300.083984
921.904297	11317.233398
920.132813	11149.397461
918.361328	11245.626953
916.591797	11106.110352
914.818359	11052.732422
913.046875	11084.020508
911.275391	10957.329102
909.501953	10894.148438
907.728516	10763.329102
905.955078	10762.234375
904.179688	10649.822266
902.406250	10475.476563
900.630859	10584.303711
898.855469	10410.051758
897.080078	10596.268555
895.302734	10654.320313
893.525391	10699.680664
891.750000	10795.663086
889.970703	10935.199219
888.193359	10642.987305
886.416016	10734.695313
884.636719	10604.293945
882.857422	10545.615234
881.078125	10442.008789
879.296875	10470.470703
877.517578	10230.723633
875.736328	10285.893555
873.955078	10321.386719
872.173828	10262.849609
870.390625	10163.656250
868.609375	10169.697266
866.826172	10331.377930
865.042969	10319.151367
863.259766	10484.923828
861.474609	10199.428711
859.689453	10457.608398
857.904297	10240.876953
856.119141	10281.889648
854.333984	10369.078125
852.546875	10431.032227
850.761719	10481.762695
848.974609	10419.155273
847.185547	10320.212891
845.398438	10356.948242
843.609375	10209.136719
