#Wave		#Intensity
1585.210938	6031.814941
1584.209961	5944.396973
1583.208984	6005.593750
1582.208008	6091.730957
1581.206055	5978.144531
1580.204102	6044.286621
1579.202148	5958.202637
1578.200195	5999.375488
1577.198242	6008.108887
1576.195313	5952.006836
1575.192383	5965.731934
1574.189453	6016.838379
1573.186523	5920.897949
1572.182617	5872.333984
1571.178711	5778.953613
1570.174805	5864.920898
1569.170898	5988.201172
1568.166992	5805.236328
1567.162109	5776.656250
1566.158203	5986.969727
1565.153320	5911.094727
1564.147461	5797.941406
1563.142578	5712.189453
1562.136719	5877.587891
1561.130859	5868.913574
1560.125000	5904.977051
1559.119141	5953.449219
1558.113281	5900.047852
1557.106445	5752.287109
1556.099609	5830.558105
1555.092773	5787.145508
1554.084961	5756.161133
1553.078125	5896.423828
1552.070313	5771.145508
1551.062500	5978.323730
1550.054688	5805.958008
1549.045898	5846.909180
1548.038086	5877.926758
1547.029297	5829.616699
1546.020508	5833.366211
1545.011719	5837.113281
1544.001953	5885.445801
1542.992188	5931.281250
1541.982422	5959.765137
1540.972656	5866.937988
1539.962891	5853.348145
1538.952148	5901.625977
1537.942383	5892.981934
1536.931641	5834.872559
1535.919922	5910.325684
1534.909180	5832.456543
1533.897461	5821.361328
1532.886719	5847.341797
1531.874023	5814.009277
1530.862305	5901.739258
1529.850586	5915.336426
1528.837891	5899.295898
1527.825195	5900.542969
1526.812500	5803.056152
1525.799805	6085.654297
1524.786133	5835.195801
1523.772461	5767.383789
1522.758789	5628.077148
1521.745117	5903.079590
1520.731445	5788.454590
1519.716797	5794.650391
1518.702148	5803.307129
1517.687500	5777.468262
1516.672852	5741.786621
1515.657227	5752.911133
1514.642578	5724.635254
1513.626953	5615.134766
1512.610352	5830.556641
1511.594727	5883.483887
1510.579102	5633.788574
1509.562500	5600.645996
1508.545898	5756.871582
1507.529297	5617.995117
1506.511719	5749.570801
1505.494141	5827.023926
1504.477539	5933.929688
1503.458984	5652.647461
1502.441406	5730.071777
1501.423828	5780.452148
1500.405273	5860.271973
1499.386719	5731.420410
1498.368164	5848.027832
1497.348633	5849.269531
1496.330078	5816.167969
1495.310547	5763.459961
1494.291016	5867.702637
1493.271484	5687.525879
1492.250977	5951.056641
1491.231445	5690.069824
1490.210938	5732.990723
1489.190430	5761.196289
1488.168945	5681.634766
1487.148438	5687.802734
1486.126953	5723.343262
1485.105469	5798.028320
1484.083984	5681.819824
1483.061523	5895.928711
1482.040039	5757.733887
1481.017578	5883.702637
1479.995117	5806.690430
1478.971680	5825.041504
1477.949219	5870.268066
1476.925781	5942.353027
1475.902344	5987.535645
1474.878906	5922.791992
1473.855469	6016.796875
1472.831055	5983.811523
1471.806641	5836.118164
1470.782227	6013.054199
1469.757813	5994.728027
1468.733398	6052.028809
1467.708008	5980.046875
1466.682617	6120.229492
1465.657227	6082.392578
1464.631836	6112.815918
1463.605469	6021.384766
1462.579102	6227.222168
1461.552734	6252.724121
1460.526367	6051.731445
1459.500000	6201.433105
1458.472656	6309.688965
1457.445313	6240.233398
1456.417969	6255.970703
1455.390625	6347.117676
1454.362305	6423.632813
1453.334961	6278.824707
1452.306641	6457.434570
1451.277344	6242.187012
1450.249023	6313.798340
1449.219727	6259.032715
1448.191406	6257.732910
1447.162109	6302.579102
1446.131836	6264.846191
1445.102539	6132.447754
1444.072266	6262.243652
1443.041992	6202.701172
1442.011719	6279.051758
1440.981445	6229.232422
1439.950195	6264.316406
1438.918945	6207.246094
1437.887695	6118.685059
1436.856445	6153.768555
1435.825195	6261.533203
1434.792969	6095.488770
1433.760742	6162.042969
1432.728516	6112.328125
1431.696289	6205.482910
1430.663086	6204.192871
1429.629883	6135.137695
1428.596680	6032.235840
1427.563477	6006.789063
1426.530273	5964.422363
1425.496094	5880.964355
1424.461914	6012.711914
1423.427734	6035.632813
1422.393555	5870.044434
1421.358398	5921.978516
1420.323242	5993.215332
1419.288086	5832.568359
1418.252930	5812.037598
1417.217773	5837.382813
1416.181641	5956.849609
1415.145508	5916.999023
1414.109375	5968.845215
1413.073242	5849.408203
1412.036133	5867.482910
1411.000000	6037.450684
1409.962891	5997.623047
1408.924805	5839.715820
1407.887695	5961.389648
1406.849609	5926.420410
1405.812500	5833.658203
1404.773438	5984.153320
1403.735352	6035.873535
1402.697266	6065.908203
1401.658203	5980.412598
1400.619141	6097.064941
1399.580078	5989.947266
1398.540039	5805.911133
1397.500977	6037.946289
1396.460938	6012.645996
1395.420898	5953.706055
1394.380859	5923.626953
1393.339844	5944.014648
1392.298828	5966.795410
1391.257813	6013.582520
1390.216797	5942.695801
1389.175781	6001.470703
1388.133789	5921.015137
1387.091797	5958.172363
1386.049805	6096.075684
1385.007813	5986.866699
1383.964844	5990.413086
1382.922852	5926.824707
1381.879883	5985.514160
1380.835938	5950.711914
1379.792969	6035.728027
1378.749023	6010.511230
1377.706055	5942.193359
1376.661133	5806.855469
1375.617188	6045.049805
1374.573242	6041.392578
1373.528320	5956.372070
1372.483398	6079.541504
1371.438477	6018.468262
1370.392578	6021.993164
1369.347656	5972.912598
1368.301758	5883.211914
1367.255859	5893.931641
1366.208984	6086.254883
1365.163086	5979.862305
1364.116211	5875.901855
1363.069336	5934.374512
1362.022461	6040.573730
1360.974609	6070.341309
1359.927734	5923.489258
1358.879883	5998.604004
1357.832031	6114.241699
1356.783203	5895.918945
1355.735352	6042.528320
1354.686523	6036.494629
1353.637695	6009.010742
1352.588867	6119.756836
1351.539063	6070.822754
1350.490234	6117.192383
1349.440430	6030.173340
1348.390625	5969.382324
1347.339844	6063.354492
1346.290039	6214.409180
1345.239258	6110.783691
1344.188477	6042.888184
1343.137695	6103.463867
1342.085938	6287.674805
1341.034180	6288.733398
1339.982422	6230.363770
1338.930664	6195.784180
1337.878906	6142.209961
1336.826172	6395.109863
1335.773438	6339.140137
1334.720703	6371.053711
1333.667969	6379.212891
1332.614258	6244.951172
1331.561523	6362.294922
1330.507813	6339.605469
1329.453125	6241.017090
1328.399414	6173.300781
1327.344727	6290.559570
1326.290039	6211.007324
1325.235352	6268.954590
1324.180664	6092.285156
1323.125000	6266.319336
1322.070313	6250.790039
1321.014648	6216.321777
1319.958008	6179.500000
1318.902344	6059.843750
1317.845703	6281.032227
1316.789063	6322.301270
1315.732422	6238.173340
1314.675781	6161.176270
1313.618164	6375.061523
1312.560547	6283.882324
1311.502930	6069.831543
1310.445313	6179.621094
1309.386719	6180.682129
1308.329102	6276.228516
1307.270508	6215.865234
1306.210938	6287.751465
1305.152344	6213.246094
1304.092773	6308.703125
1303.033203	6326.250977
1301.973633	6268.297363
1300.914063	6196.215820
1299.853516	6135.955078
1298.792969	6108.726563
1297.732422	6154.581543
1296.671875	6028.379395
1295.611328	6144.916504
1294.549805	6145.975586
1293.488281	6172.940430
1292.426758	6032.710938
1291.364258	6099.708984
1290.302734	6100.774902
1289.240234	5967.707520
1288.177734	5884.102539
1287.114258	6009.878906
1286.051758	5907.485840
1284.988281	5899.184082
1283.924805	5926.145996
1282.861328	5924.893555
1281.796875	6078.722656
1280.732422	5934.134766
1279.667969	5895.300293
1278.603516	5978.589844
1277.539063	5874.025391
1276.473633	5872.782715
1275.408203	5920.821777
1274.342773	5982.917480
1273.277344	5925.353027
1272.210938	5830.289063
1271.145508	5995.532227
1270.079102	5938.000488
1269.011719	5767.992676
1267.945313	5895.650391
1266.877930	5854.574219
1265.810547	5909.548340
1264.743164	5831.017578
1263.674805	5729.106934
1262.607422	5830.887207
1261.539063	5902.199707
1260.470703	5882.229980
1259.401367	5771.036133
1258.333008	5846.992188
1257.263672	5817.692383
1256.194336	5743.986328
1255.125000	5817.561523
1254.054688	5844.368652
1252.985352	5712.294434
1251.915039	5743.783203
1250.843750	5770.587402
1249.773438	5696.982422
1248.702148	5856.841309
1247.630859	5818.255859
1246.559570	5833.353027
1245.488281	5806.452148
1244.416016	5655.947754
1243.343750	5703.714355
1242.271484	5835.389160
1241.199219	5824.825195
1240.125977	5788.630859
1239.053711	5715.173828
1237.980469	5741.910645
1236.906250	5845.488281
1235.833008	5886.155273
1234.758789	5770.835938
1233.684570	5695.130859
1232.610352	5612.477051
1231.536133	5618.261230
1230.460938	5668.234863
1229.385742	5822.830078
1228.310547	5649.545410
1227.235352	5752.940918
1226.159180	5593.687988
1225.083008	5604.112793
1224.006836	5746.939941
1222.930664	5813.065430
1221.853516	5665.542969
1220.777344	5873.265137
1219.700195	5616.707520
1218.622070	5794.184082
1217.544922	5760.468262
1216.466797	5587.598145
1215.388672	5741.776855
1214.310547	5705.773926
1213.232422	5514.480957
1212.153320	5550.382813
1211.074219	5755.409668
1209.995117	5707.850098
1208.916016	5736.738281
1207.835938	5763.298340
1206.755859	5819.941895
1205.675781	5559.471680
1204.595703	5551.340820
1203.514648	5705.159668
1202.434570	5548.966309
1201.353516	5716.594727
1200.271484	5657.570313
1199.190430	5617.062988
1198.108398	5662.082031
1197.026367	5607.727051
1195.944336	5620.386719
1194.862305	5649.207520
1193.779297	5574.106934
1192.696289	5455.175293
1191.613281	5601.724121
1190.530273	5531.295898
1189.446289	5449.361816
1188.362305	5468.953125
1187.278320	5601.534668
1186.194336	5697.168945
1185.109375	5645.234375
1184.024414	5448.130371
1182.939453	5589.817383
1181.854492	5466.525391
1180.768555	5472.261230
1179.683594	5517.139648
1178.597656	5608.041016
1177.510742	5627.551758
1176.424805	5490.574219
1175.337891	5447.982910
1174.250977	5591.723145
1173.164063	5620.417480
1172.077148	5607.713379
1170.989258	5636.391113
1169.901367	5685.739258
1168.813477	5457.043945
1167.724609	5667.213379
1166.636719	5656.807617
1165.547852	5531.594238
1164.458984	5571.727051
1163.369141	5687.584473
1162.280273	5537.202148
1161.190430	5432.769043
1160.100586	5537.111328
1159.010742	5611.596191
1157.919922	5537.019043
1156.829102	5391.413086
1155.738281	5516.298828
1154.647461	5501.361816
1153.555664	5539.119629
1152.464844	5588.311523
1151.373047	5511.542969
1150.280273	5544.693848
1149.188477	5655.648926
1148.095703	5709.348145
1147.002930	5559.407715
1145.910156	5485.013184
1144.817383	5593.597168
1143.723633	5615.252441
1142.629883	5524.891602
1141.536133	5562.549316
1140.441406	5529.359375
1139.347656	5473.339844
1138.252930	5435.615234
1137.158203	5614.826660
1136.062500	5593.066895
1134.967773	5639.787598
1133.872070	5586.084473
1132.776367	5623.659668
1131.679688	5531.206543
1130.583984	5739.808105
1129.487305	5597.210449
1128.390625	5598.277832
1127.292969	5558.324219
1126.196289	5648.257813
1125.098633	5558.194336
1124.000977	5586.597168
1122.903320	5601.325684
1121.804688	5543.200195
1120.706055	5605.725586
1119.607422	5586.306641
1118.508789	5539.595703
1117.409180	5508.825684
1116.310547	5569.028809
1115.210938	5495.068359
1114.110352	5434.777344
1113.010742	5533.588867
1111.910156	5418.786133
1110.809570	5481.212891
1109.708984	5443.686035
1108.607422	5592.359863
1107.506836	5507.152832
1106.405273	5589.930176
1105.303711	5522.912109
1104.201172	5560.277344
1103.098633	5413.911621
1101.996094	5571.465820
1100.893555	5536.247559
1099.791016	5510.110840
1098.687500	5540.637695
1097.583984	5410.291504
1096.480469	5400.053711
1095.376953	5568.725586
1094.272461	5409.023438
1093.167969	5532.346191
1092.063477	5420.247070
1090.958008	5529.936523
1089.853516	5488.012695
1088.748047	5581.807129
1087.642578	5453.964355
1086.536133	5563.548828
1085.430664	5408.642578
1084.324219	5567.901855
1083.217773	5620.908691
1082.110352	5438.984863
1081.003906	5555.226074
1079.896484	5531.436035
1078.789063	5557.315430
1077.680664	5571.899414
1076.573242	5541.351563
1075.464844	5533.374023
1074.356445	5525.399902
1073.247070	5659.479004
1072.138672	5473.391113
1071.029297	5542.062500
1069.919922	5498.038086
1068.809570	5492.330566
1067.700195	5538.427734
1066.589844	5510.194824
1065.479492	5459.460449
1064.368164	5368.232422
1063.257813	5520.080566
1062.146484	5449.126953
1061.035156	5450.183594
1059.922852	5552.437988
1058.811523	5463.535156
1057.699219	5480.321777
1056.586914	5517.326660
1055.473633	5552.067871
1054.361328	5528.386719
1053.248047	5480.011230
1052.134766	5458.600586
1051.021484	5551.690430
1049.907227	5386.629395
1048.792969	5410.131348
1047.678711	5503.168945
1046.564453	5499.718262
1045.449219	5626.331055
1044.333984	5528.691406
1043.218750	5433.335449
1042.103516	5488.166992
1040.987305	5583.302246
1039.871094	5311.036133
1038.754883	5464.395020
1037.638672	5438.564941
1036.521484	5585.111816
1035.404297	5438.412109
1034.287109	5473.016602
1033.169922	5299.560547
1032.051758	5528.759766
1030.933594	5471.641602
1029.815430	5524.091309
1028.697266	5487.114258
1027.578125	5427.807129
1026.458984	5368.525391
1025.339844	5483.490234
1024.220703	5415.289063
1023.100586	5460.980957
1021.980469	5390.582031
1020.860352	5505.438965
1019.740234	5486.376465
1018.619141	5543.163574
1017.498047	5454.965332
1016.376953	5328.900879
1015.255859	5407.975586
1014.133789	5377.809570
1013.011719	5372.166504
1011.889648	5435.583984
1010.767578	5412.111816
1009.644531	5379.743164
1008.521484	5349.614258
1007.398438	5386.270020
1006.274414	5440.710938
1005.151367	5312.698242
1004.027344	5402.718750
1002.902344	5372.615723
1001.778320	5431.456055
1000.653320	5408.027344
999.528320	5413.498047
998.403320	5272.327637
997.278320	5324.472656
996.152344	5472.088867
995.026367	5313.234863
993.900391	5378.653809
992.773438	5408.533691
991.646484	5314.144531
990.519531	5412.793457
989.392578	5389.416016
988.265625	5386.004395
987.137695	5373.726563
986.009766	5357.020508
984.881836	5227.311035
983.752930	5303.690918
982.624023	5238.282227
981.495117	5412.060059
980.366211	5235.958496
979.236328	5310.054199
978.106445	5350.921875
976.976563	5325.396973
975.846680	5350.758301
974.715820	5404.857422
973.585938	5270.997559
972.454102	5137.197266
971.323242	5379.156250
970.191406	5437.618164
969.060547	5339.212402
967.927734	5362.319824
966.795898	5358.919434
965.663086	5399.671387
964.530273	5338.879883
963.397461	5249.429688
962.264648	5420.335938
961.130859	5273.561035
959.997070	5296.643066
958.863281	5346.169922
957.729492	5466.206055
956.594727	5368.029297
955.459961	5349.208984
954.325195	5337.003906
953.189453	5291.771973
952.053711	5343.432617
950.917969	5329.034668
949.782227	5396.067871
948.646484	5421.267090
947.509766	5206.687500
946.373047	5291.295410
945.235352	5296.710938
944.098633	5271.348633
942.960938	5353.686523
941.823242	5299.757813
940.685547	5219.491211
939.546875	5308.373047
938.408203	5379.647949
937.269531	5279.658691
936.129883	5287.258789
934.991211	5354.100586
933.851563	5326.578613
932.711914	5356.094727
931.571289	5490.853027
930.431641	5360.276855
929.291016	5284.555176
928.149414	5373.219238
927.008789	5341.345215
925.867188	5443.098145
924.725586	5336.765137
923.583984	5383.737305
922.441406	5297.164551
921.299805	5390.081055
920.157227	5310.108398
919.013672	5306.731445
917.871094	5377.712402
916.727539	5304.354004
915.583984	5237.586426
914.439453	5240.783691
913.295898	5276.753418
912.151367	5242.803223
911.006836	5250.363281
909.861328	5271.020996
908.716797	5263.289551
907.571289	5347.228027
906.424805	5346.028320
905.279297	5314.286621
904.132813	5252.023438
902.986328	5226.857910
901.839844	5393.551758
900.692383	5313.874512
899.545898	5343.188477
898.398438	5313.666016
897.250000	5284.156250
896.102539	5285.146484
894.954102	5288.312988
893.805664	5365.484375
892.656250	5368.629883
891.507813	5326.084961
890.358398	5403.193848
889.208984	5456.346191
888.058594	5409.459961
886.908203	5310.424805
885.758789	5287.497070
884.607422	5308.034668
883.457031	5272.083008
882.305664	5299.128906
881.154297	5302.278320
880.002930	5131.761719
878.850586	5258.653809
877.698242	5305.205078
876.545898	5312.686523
875.393555	5350.528320
874.240234	5232.230957
873.086914	5276.576660
871.933594	5242.875977
870.780273	5313.200684
869.625977	5307.669434
868.471680	5269.651367
867.317383	5277.124023
866.162109	5128.717773
865.007813	5324.523926
863.852539	5362.272949
862.696289	5319.956543
861.541016	5305.777344
860.384766	5345.666016
859.228516	5400.670410
858.072266	5412.418945
856.915039	5255.602539
855.757813	5314.909668
854.600586	5326.668457
853.442383	5260.677734
852.285156	5382.554688
851.126953	5327.373047
849.968750	5302.429199
848.809570	5318.490234
847.650391	5386.314453
846.491211	5341.962891
845.332031	5179.043457
844.171875	5277.031250
843.012695	5226.267578
841.851563	5242.321777
840.691406	5202.358887
839.530273	5175.336426
838.369141	5277.518066
837.208008	5170.838867
836.046875	5384.890625
834.884766	5127.612305
833.722656	5249.071777
832.560547	5189.810547
831.397461	5199.385254
830.234375	5243.352051
829.071289	5194.877930
827.908203	5157.169434
826.744141	5181.779297
825.580078	5191.342773
824.416016	5140.775391
823.251953	5068.761719
822.086914	5099.806641
820.921875	5216.672852
819.756836	5114.653809
818.590820	5167.115234
817.425781	5110.186523
816.259766	5044.707031
815.092773	5122.868652
813.926758	5117.418457
812.759766	5133.395508
811.592773	5155.790527
810.424805	5165.325684
809.257813	5127.753906
808.089844	5068.792969
806.920898	5129.701660
805.752930	5053.649902
804.583984	5061.056152
803.415039	5074.875000
802.246094	5103.653320
801.076172	5170.895508
799.906250	4962.416504
798.736328	4961.286621
797.566406	5105.415527
796.395508	5087.167480
795.224609	5068.927246
794.053711	4946.094727
792.881836	5068.751953
791.710938	5065.463379
790.538086	5057.909180
789.366211	5107.942383
788.194336	5064.132324
787.021484	5080.032227
785.848633	4957.389648
784.674805	5165.078613
783.500977	4935.956055
782.327148	4990.205566
781.153320	5044.430176
779.979492	4936.835938
778.804688	4935.708984
777.629883	4894.152344
776.454102	5007.915039
775.279297	4957.852539
774.103516	5071.548340
772.927734	5042.752441
771.750977	4882.190918
770.575195	5048.949219
769.398438	4947.944336
768.220703	5080.626465
767.043945	5039.118164
765.866211	4948.798828
764.688477	5007.099121
763.510742	4974.123535
762.332031	4947.527344
761.153320	5058.813965
759.974609	5047.054199
758.794922	5001.376953
757.616211	5036.266602
756.436523	5018.161133
755.255859	5142.014648
754.076172	5210.737793
752.895508	5203.192383
751.714844	5267.634766
750.533203	5289.712891
749.352539	5239.828125
748.170898	5338.069336
746.988281	5309.348145
745.806641	5437.134277
744.624023	5537.375488
743.441406	5360.659668
742.258789	5327.730957
741.075195	5372.993164
739.891602	5394.997559
738.708008	5332.516113
737.523438	5502.317383
736.339844	5465.170410
735.155273	5493.463379
733.969727	5492.203613
732.785156	5636.497070
731.599609	5605.678711
730.414063	5456.797363
729.227539	5533.541992
728.041992	5500.659668
726.855469	5404.580078
725.667969	5453.896973
724.481445	5341.022949
723.293945	5337.690918
722.106445	5201.738281
720.918945	5133.195801
719.730469	5077.309082
718.541992	5109.801758
717.353516	5089.699219
716.164063	5002.319336
714.975586	5015.885742
713.786133	4892.832520
712.595703	4895.910645
711.406250	4844.367188
710.215820	4807.548828
709.025391	4791.745117
707.833984	4948.092285
706.642578	4749.664063
705.451172	4849.292969
704.259766	4734.892578
703.068359	4968.710938
