#Wave		#Intensity
2109.224609	8049.859863
2107.712891	8084.593262
2106.201172	7871.182617
2104.687500	7829.802734
2103.175781	7793.399414
2101.662109	7839.638672
2100.150391	8041.163574
2098.636719	7908.932617
2097.123047	7875.847168
2095.607422	7945.144531
2094.093750	7917.017578
2092.578125	7836.090332
2091.064453	7940.002930
2089.548828	7829.411133
2088.033203	7783.191406
2086.517578	7730.395508
2085.000000	7875.456543
2083.484375	7694.099121
2081.966797	7718.808594
2080.449219	7748.449707
2078.931641	7723.720703
2077.414063	7736.879883
2075.894531	7712.164551
2074.376953	7750.012695
2072.857422	7848.738281
2071.337891	7754.906738
2069.818359	7810.816895
2068.298828	7761.441406
2066.777344	7702.220703
2065.257813	7723.582031
2063.736328	7712.061035
2062.214844	7679.182129
2060.693359	7746.537598
2059.171875	7712.022461
2057.648438	7753.066406
2056.126953	7526.462402
2054.603516	7626.624023
2053.080078	7711.971680
2051.556641	7690.627930
2050.033203	7669.293457
2048.507813	7552.839844
2046.984375	7588.936523
2045.458984	7625.017578
2043.933594	7621.745117
2042.408203	7634.861816
2040.882813	7615.204590
2039.355469	7697.114258
2037.830078	7521.872559
2036.302734	7688.908203
2034.775391	7667.619629
2033.248047	7736.354492
2031.718750	7603.797363
2030.191406	7736.317871
2028.662109	7592.368652
2027.134766	7677.413086
2025.605469	7679.041992
2024.076172	7739.513672
2022.544922	7636.541016
2021.015625	7647.980469
2019.484375	7721.487793
2017.955078	7690.442383
2016.423828	7651.246582
2014.892578	7582.683594
2013.359375	7556.583984
2011.828125	7736.095215
2010.294922	7654.506836
2008.761719	7711.591797
2007.230469	7683.855957
2005.695313	7612.112793
2004.162109	7659.390137
2002.628906	7623.534668
2001.093750	7652.866699
1999.558594	7507.887695
1998.023438	7644.720215
1996.488281	7589.358887
1994.953125	7447.741699
1993.417969	7569.851074
1991.880859	7548.712891
1990.343750	7639.837891
1988.806641	7504.835938
1987.269531	7592.679199
1985.732422	7636.587402
1984.193359	7639.838867
1982.656250	7633.338379
1981.117188	7584.595215
1979.578125	7608.973633
1978.039063	7626.845215
1976.500000	7599.243652
1974.958984	7612.238770
1973.417969	7660.936523
1971.878906	7532.734863
1970.337891	7641.457031
1968.796875	7573.329590
1967.253906	7529.556152
1965.712891	7549.034668
1964.169922	7442.065430
1962.626953	7715.998535
1961.083984	7570.151367
1959.541016	7704.622559
1957.998047	7579.895020
1956.455078	7497.321289
1954.910156	7513.538574
1953.365234	7581.544434
1951.820313	7698.068848
1950.275391	7686.728027
1948.730469	7584.807617
1947.183594	7630.098633
1945.638672	7600.993164
1944.091797	7554.118164
1942.544922	7513.727539
1940.998047	7580.000488
1939.449219	7631.706055
1937.902344	7617.166504
1936.353516	7563.877441
1934.804688	7576.805176
1933.255859	7709.173828
1931.707031	7563.911621
1930.158203	7531.652832
1928.607422	7513.926270
1927.058594	7699.416992
1925.507813	7612.327148
1923.957031	7621.999512
1922.406250	7605.879395
1920.853516	7633.274414
1919.302734	7546.271484
1917.750000	7512.458984
1916.197266	7494.764648
1914.644531	7615.541992
1913.091797	7652.562988
1911.539063	7676.693359
1909.984375	7602.662109
1908.431641	7401.576172
1906.876953	7477.210449
1905.322266	7610.701172
1903.767578	7441.893555
1902.210938	7575.334473
1900.656250	7433.924316
1899.099609	7446.811523
1897.542969	7477.362793
1895.986328	7515.930176
1894.429688	7469.383301
1892.873047	7528.804688
1891.314453	7477.458984
1889.755859	7533.644043
1888.199219	7499.965820
1886.640625	7439.034668
1885.080078	7506.416504
1883.521484	7601.024902
1881.960938	7634.682129
1880.402344	7589.798828
1878.841797	7524.104980
1877.281250	7376.742188
1875.720703	7602.604492
1874.158203	7448.881836
1872.597656	7413.688965
1871.035156	7508.154785
1869.472656	7504.968262
1867.910156	7474.584961
1866.347656	7409.024414
1864.783203	7452.236328
1863.220703	7436.271973
1861.656250	7696.857910
1860.091797	7602.537109
1858.527344	7517.843262
1856.962891	7605.715820
1855.396484	7465.155273
1853.832031	7548.210449
1852.265625	7355.037109
1850.699219	7554.599121
1849.132813	7557.791016
1847.566406	7517.902832
1845.998047	7548.218262
1844.431641	7522.701660
1842.863281	7355.288086
1841.294922	7395.182129
1839.726563	7420.714844
1838.156250	7497.227539
1836.587891	7524.320313
1835.017578	7495.653809
1833.449219	7549.806641
1831.878906	7484.527832
1830.306641	7556.168945
1828.736328	7527.519043
1827.166016	7470.240723
1825.593750	7486.161621
1824.021484	7482.990234
1822.449219	7564.095215
1820.876953	7529.113281
1819.304688	7600.636719
1817.730469	7680.075684
1816.158203	7395.655273
1814.583984	7546.582031
1813.009766	7448.115234
1811.435547	7497.350586
1809.859375	7484.655273
1808.285156	7352.934570
1806.708984	7576.699219
1805.132813	7440.254883
1803.556641	7484.679688
1801.980469	7529.085449
1800.404297	7479.933594
1798.826172	7473.598633
1797.248047	7498.960938
1795.671875	7638.388672
1794.093750	7517.970703
1792.513672	7530.636719
1790.935547	7593.965332
1789.355469	7443.553711
1787.777344	7527.448730
1786.197266	7540.100586
1784.617188	7525.851563
1783.035156	7525.843750
1781.455078	7535.323730
1779.873047	7563.771973
1778.292969	7519.494629
1776.710938	7506.843750
1775.128906	7546.339355
1773.544922	7581.078613
1771.962891	7475.237305
1770.378906	7541.557617
1768.794922	7543.121582
1767.212891	7587.300781
1765.626953	7601.478516
1764.042969	7751.333008
1762.458984	7486.271973
1760.873047	7582.466797
1759.287109	7615.552246
1757.701172	7617.095703
1756.115234	7792.003906
1754.529297	7813.992676
1752.941406	7580.759277
1751.355469	7772.888672
1749.767578	7772.820313
1748.179688	7689.309082
1746.591797	7782.126465
1745.001953	7786.776367
1743.414063	7807.157227
1741.824219	7684.381348
1740.234375	7734.656250
1738.644531	7896.549316
1737.054688	7819.420898
1735.462891	7795.762695
1733.873047	7740.686523
1732.281250	7831.742188
1730.689453	7947.890137
1729.097656	7895.956055
1727.505859	7930.396973
1725.912109	7900.464355
1724.320313	8021.206055
1722.726563	8102.669434
1721.132813	8151.154297
1719.539063	8078.851074
1717.945313	8113.207031
1716.349609	7957.851074
1714.755859	8073.722656
1713.160156	8014.031738
1711.564453	8367.986328
1709.968750	8101.490723
1708.371094	8242.289063
1706.775391	8392.421875
1705.177734	8184.008789
1703.580078	8224.533203
1701.982422	8247.827148
1700.384766	8333.688477
1698.787109	8331.922852
1697.187500	8369.251953
1695.587891	8370.605469
1693.990234	8379.773438
1692.390625	8468.638672
1690.789063	8710.583984
1689.189453	8610.325195
1687.587891	8442.952148
1685.988281	8567.639648
1684.386719	8681.345703
1682.785156	8638.924805
1681.181641	8790.016602
1679.580078	8777.232422
1677.976563	8776.930664
1676.373047	8857.719727
1674.769531	9016.431641
1673.166016	9061.282227
1671.562500	9131.049805
1669.957031	9083.925781
1668.353516	9180.140625
1666.748047	9315.250000
1665.142578	9397.358398
1663.537109	9625.772461
1661.929688	9681.318359
1660.324219	9827.097656
1658.716797	10036.602539
1657.109375	10076.469727
1655.501953	10262.503906
1653.894531	10283.646484
1652.285156	10642.106445
1650.677734	10689.579102
1649.068359	10883.091797
1647.458984	11081.181641
1645.849609	11116.103516
1644.240234	11279.895508
1642.628906	11529.005859
1641.019531	11729.891602
1639.408203	11671.530273
1637.796875	11749.728516
1636.185547	11972.153320
1634.572266	11944.792969
1632.960938	12288.022461
1631.347656	12344.316406
1629.734375	12363.388672
1628.121094	12529.658203
1626.507813	12867.820313
1624.894531	12721.035156
1623.279297	12829.823242
1621.664063	12870.442383
1620.048828	13171.090820
1618.433594	13087.812500
1616.818359	13276.882813
1615.203125	13510.732422
1613.585938	13657.872070
1611.968750	13894.631836
1610.351563	14123.559570
1608.734375	14414.212891
1607.117188	14624.386719
1605.498047	14689.246094
1603.878906	14747.899414
1602.261719	15109.203125
1600.640625	15067.382813
1599.021484	15186.115234
1597.402344	15582.586914
1595.781250	15647.153320
1594.162109	15983.192383
1592.541016	15950.478516
1590.919922	16071.973633
1589.296875	16073.167969
1587.675781	16367.208984
1586.052734	16305.157227
1584.429688	16377.166992
1582.806641	16156.483398
1581.183594	16233.111328
1579.560547	15895.535156
1577.935547	15599.664063
1576.312500	15320.847656
1574.687500	15114.466797
1573.062500	15034.318359
1571.435547	15123.384766
1569.810547	14920.250977
1568.183594	14794.070313
1566.558594	14752.479492
1564.931641	14620.240234
1563.304688	14678.566406
1561.675781	14724.579102
1560.048828	14544.819336
1558.419922	14647.647461
1556.791016	14596.924805
1555.162109	14745.737305
1553.533203	14940.517578
1551.904297	15159.758789
1550.273438	14950.988281
1548.642578	14983.053711
1547.011719	14782.073242
1545.380859	14938.312500
1543.750000	14895.266602
1542.119141	14590.248047
1540.486328	14839.862305
1538.853516	14602.367188
1537.220703	14616.077148
1535.587891	14410.876953
1533.955078	14438.393555
1532.320313	14328.185547
1530.685547	14369.473633
1529.052734	14404.625977
1527.416016	14317.428711
1525.781250	14282.249023
1524.146484	14201.227539
1522.509766	14014.796875
1520.873047	14224.154297
1519.236328	14051.543945
1517.599609	14326.469727
1515.962891	14213.457031
1514.324219	14227.192383
1512.687500	14384.382813
1511.048828	14529.296875
1509.410156	14419.383789
1507.771484	14536.772461
1506.130859	14466.548828
1504.492188	14618.939453
1502.851563	14589.879883
1501.210938	14416.061523
1499.570313	14231.652344
1497.927734	14121.959961
1496.287109	13849.361328
1494.644531	13825.060547
1493.001953	13796.203125
1491.359375	13510.150391
1489.716797	13665.483398
1488.074219	13587.994141
1486.429688	13306.730469
1484.785156	13253.679688
1483.140625	13243.218750
1481.496094	13299.638672
1479.851563	13286.130859
1478.207031	13410.883789
1476.560547	13377.608398
1474.914063	13207.667969
1473.267578	13271.621094
1471.621094	13191.335938
1469.972656	13214.285156
1468.326172	13202.325195
1466.677734	13061.423828
1465.029297	13041.916016
1463.380859	13186.181641
1461.732422	13365.251953
1460.082031	13394.189453
1458.431641	13636.781250
1456.783203	13839.875000
1455.132813	13823.246094
1453.480469	13603.696289
1451.830078	13470.541992
1450.177734	13220.886719
1448.527344	12907.775391
1446.875000	12579.668945
1445.220703	12371.208984
1443.568359	12249.046875
1441.916016	11919.780273
1440.261719	12165.124023
1438.607422	11802.764648
1436.953125	11739.759766
1435.298828	11395.777344
1433.642578	11394.814453
1431.988281	11227.738281
1430.332031	11252.476563
1428.675781	10972.291016
1427.019531	10895.959961
1425.361328	10849.837891
1423.705078	10681.546875
1422.046875	10522.377930
1420.388672	10467.316406
1418.730469	10312.783203
1417.072266	10079.944336
1415.412109	10085.285156
1413.753906	10066.519531
1412.093750	10053.786133
1410.433594	10056.115234
1408.773438	10196.951172
1407.111328	10422.016602
1405.451172	10529.602539
1403.789063	10880.876953
1402.126953	11101.129883
1400.464844	11175.409180
1398.802734	11562.396484
1397.138672	11388.506836
1395.474609	11447.642578
1393.812500	11410.585938
1392.146484	11474.195313
1390.482422	11310.986328
1388.818359	11320.530273
1387.152344	11125.896484
1385.486328	11221.028320
1383.820313	11304.112305
1382.154297	11292.641602
1380.488281	11507.667969
1378.820313	11557.640625
1377.154297	11962.923828
1375.486328	12062.238281
1373.818359	12174.997070
1372.148438	12185.818359
1370.480469	12355.421875
1368.810547	12375.182617
1367.140625	12505.737305
1365.470703	12363.777344
1363.800781	12109.628906
1362.130859	12232.669922
1360.458984	12195.582031
1358.787109	12320.043945
1357.115234	12425.009766
1355.443359	12522.454102
1353.771484	12592.949219
1352.097656	12821.817383
1350.423828	13061.041992
1348.751953	13376.340820
1347.076172	13694.486328
1345.402344	13776.585938
1343.728516	14352.746094
1342.052734	14694.342773
1340.376953	15228.268555
1338.701172	15611.289063
1337.025391	15930.007813
1335.347656	16224.728516
1333.671875	16547.642578
1331.994141	16536.550781
1330.316406	16269.162109
1328.638672	16255.155273
1326.960938	16290.304688
1325.281250	15908.477539
1323.601563	15648.900391
1321.921875	15609.730469
1320.242188	15531.884766
1318.562500	15373.729492
1316.880859	15273.654297
1315.201172	15066.545898
1313.519531	14694.487305
1311.837891	14514.351563
1310.154297	14060.835938
1308.472656	13842.284180
1306.789063	13402.483398
1305.105469	12916.833984
1303.421875	12716.494141
1301.738281	12352.940430
1300.054688	12298.264648
1298.369141	12064.060547
1296.683594	11936.775391
1294.998047	11891.124023
1293.312500	11769.862305
1291.626953	11642.723633
1289.939453	11665.346680
1288.253906	11607.935547
1286.566406	11514.989258
1284.878906	11558.361328
1283.189453	11434.365234
1281.501953	11431.833984
1279.812500	11119.921875
1278.123047	11056.780273
1276.433594	11120.914063
1274.744141	11035.608398
1273.052734	11178.102539
1271.363281	11242.163086
1269.671875	11096.273438
1267.980469	11049.471680
1266.289063	10841.625000
1264.595703	10715.123047
1262.904297	10690.589844
1261.210938	10447.517578
1259.517578	10312.325195
1257.824219	10028.114258
1256.128906	10025.885742
1254.435547	10054.640625
1252.740234	9764.772461
1251.044922	9657.897461
1249.349609	9568.760742
1247.652344	9526.833008
1245.957031	9719.246094
1244.259766	9454.817383
1242.562500	9443.874023
1240.865234	9488.899414
1239.167969	9363.103516
1237.468750	9419.901367
1235.769531	9328.025391
1234.072266	9283.275391
1232.371094	9350.347656
1230.671875	9454.159180
1228.972656	9331.473633
1227.271484	9347.033203
1225.570313	9411.088867
1223.869141	9573.569336
1222.167969	9396.604492
1220.464844	9257.907227
1218.763672	9131.018555
1217.060547	9143.661133
1215.357422	9170.974609
1213.654297	9051.524414
1211.949219	9001.084961
1210.246094	8938.931641
1208.541016	9010.258789
1206.835938	9056.626953
1205.130859	9023.817383
1203.423828	8989.556641
1201.718750	9049.083008
1200.011719	9051.451172
1198.304688	8929.331055
1196.597656	9041.540039
1194.888672	8950.216797
1193.181641	9025.779297
1191.472656	9058.874023
1189.763672	9024.659180
1188.054688	9110.389648
1186.343750	9090.798828
1184.634766	9017.125000
1182.923828	8942.021484
1181.212891	8836.264648
1179.501953	8917.553711
1177.791016	8870.271484
1176.078125	8849.295898
1174.365234	8898.405273
1172.652344	8718.331055
1170.939453	8703.238281
1169.226563	8612.284180
1167.511719	8735.790039
1165.798828	8704.658203
1164.083984	8695.409180
1162.369141	8592.874023
1160.652344	8611.342773
1158.937500	8594.833008
1157.220703	8587.070313
1155.503906	8541.446289
1153.787109	8501.665039
1152.070313	8569.621094
1150.351563	8461.448242
1148.632813	8548.296875
1146.916016	8514.365234
1145.195313	8727.692383
1143.476563	8871.126953
1141.757813	8954.893555
1140.037109	9003.741211
1138.316406	9110.687500
1136.595703	9351.235352
1134.875000	9488.553711
1133.152344	9582.246094
1131.429688	9638.150391
1129.708984	9322.464844
1127.984375	9046.100586
1126.261719	8794.522461
1124.539063	8557.562500
1122.814453	8300.407227
1121.089844	8063.664551
1119.365234	7840.073242
1117.640625	7697.732910
1115.914063	7474.324219
1114.187500	7300.263184
1112.462891	7326.123535
1110.734375	7305.641113
1109.007813	7150.552246
1107.281250	7043.288574
1105.552734	7195.054199
1103.824219	7067.576660
1102.095703	7005.233398
1100.367188	7164.131348
1098.636719	6905.204102
1096.908203	6874.732422
1095.177734	6761.916992
1093.447266	6867.275391
1091.714844	6698.187988
1089.984375	6790.517090
1088.251953	6842.384277
1086.519531	6715.268555
1084.787109	6788.770996
1083.054688	6820.405273
1081.320313	6912.597656
1079.585938	6935.536621
1077.851563	7112.712402
1076.117188	7119.740234
1074.382813	7177.195801
1072.648438	7110.734375
1070.912109	7107.673340
1069.175781	7042.696289
1067.439453	6910.086914
1065.701172	6819.276367
1063.964844	6796.136719
1062.226563	6701.075684
1060.488281	6666.465820
1058.750000	6532.651855
1057.011719	6588.666016
1055.271484	6452.054688
1053.531250	6446.270020
1051.791016	6397.387695
1050.050781	6305.437988
1048.310547	6338.460449
1046.568359	6387.259277
1044.826172	6291.066895
1043.083984	6463.263672
1041.341797	6415.875000
1039.599609	6381.416992
1037.855469	6549.170898
1036.113281	6474.553223
1034.369141	6603.506836
1032.623047	6493.083496
1030.878906	6518.817383
1029.132813	6518.755859
1027.386719	6445.659668
1025.640625	6437.023438
1023.894531	6548.627441
1022.148438	6487.020508
1020.400391	6506.993652
1018.652344	6604.198730
1016.904297	6759.991699
1015.156250	6621.184082
1013.406250	6522.462891
1011.658203	6539.542969
1009.908203	6540.898438
1008.158203	6622.245117
1006.408203	6630.719727
1004.656250	6653.468262
1002.904297	6564.863770
1001.152344	6514.831543
999.400391	6521.894043
997.648438	6598.849121
995.896484	6553.120117
994.142578	6571.573242
992.388672	6505.913574
990.634766	6465.936035
988.878906	6303.441406
987.125000	6458.684082
985.369141	6391.684082
983.613281	6452.860352
981.857422	6441.408203
980.099609	6404.343262
978.343750	6474.009277
976.585938	6331.685059
974.828125	6313.157715
973.070313	6267.622559
971.310547	6183.726563
969.552734	6243.411133
967.792969	6357.061523
966.033203	6284.564941
964.273438	6405.253418
962.511719	6402.353027
960.750000	6586.837891
958.990234	6630.731445
957.226563	6607.914551
955.464844	6653.199707
953.703125	6480.050781
951.939453	6406.236816
950.175781	6391.995605
948.412109	6219.025391
946.648438	6165.158203
944.882813	6233.145020
943.117188	6169.384277
941.351563	6092.909180
939.585938	6267.036621
937.820313	6173.588867
936.052734	6322.145996
934.285156	6279.655273
932.517578	6296.584961
930.750000	6344.614746
928.982422	6385.552734
927.212891	6457.564941
925.443359	6475.848145
923.673828	6398.060059
921.904297	6573.119141
920.132813	6551.824219
918.361328	6385.132813
916.591797	6389.294922
914.818359	6050.569824
913.046875	6202.932129
911.275391	6114.045898
909.501953	6044.940918
907.728516	5939.214844
905.955078	5975.887207
904.179688	5832.179688
902.406250	6097.076660
900.630859	6192.838867
898.855469	6068.892578
897.080078	6116.751465
895.302734	6344.739258
893.525391	6146.265625
891.750000	6080.121582
889.970703	5981.659180
888.193359	5891.679199
886.416016	6023.856445
884.636719	5945.150879
882.857422	5886.153320
881.078125	5720.416992
879.296875	5793.520020
877.517578	5575.927246
875.736328	5685.528809
873.955078	5578.938477
872.173828	5546.765625
870.390625	5601.584473
868.609375	5523.137207
866.826172	5552.695313
865.042969	5634.107910
863.259766	5607.563477
861.474609	5590.839355
859.689453	5571.320801
857.904297	5513.995605
856.119141	5572.915527
854.333984	5598.209961
852.546875	5615.094727
850.761719	5601.187500
848.974609	5667.024414
847.185547	5523.041504
845.398438	5614.033691
843.609375	5583.361816
841.822266	5667.308594
840.031250	5691.131836
838.242188	5692.591797
836.453125	5805.781250
834.662109	5762.531250
832.871094	5734.656738
831.080078	5773.785645
829.289063	5812.895996
827.496094	5963.586426
825.703125	5997.053711
823.910156	6119.742188
822.117188	5838.109863
820.324219	5832.558594
818.529297	5709.967285
816.734375	5687.730957
814.939453	5751.852051
813.144531	5765.816895
811.347656	5726.876953
809.550781	5715.789063
807.755859	5639.310547
805.957031	5565.649414
804.160156	5643.612793
