#Wave		#Intensity
2109.224609	7649.599609
2107.712891	7459.393555
2106.201172	7515.656250
2104.687500	7646.291504
2103.175781	7535.547852
2101.662109	7542.182129
2100.150391	7444.726074
2098.636719	7433.207520
2097.123047	7350.680176
2095.607422	7322.675781
2094.093750	7434.997559
2092.578125	7340.971191
2091.064453	7367.437988
2089.548828	7318.008301
2088.033203	7227.366699
2086.517578	7194.478516
2085.000000	7232.495117
2083.484375	7077.647949
2081.966797	7287.056152
2080.449219	7152.035156
2078.931641	7298.743164
2077.414063	7241.179688
2075.894531	7167.175781
2074.376953	7127.772949
2072.857422	7322.087891
2071.337891	7228.369141
2069.818359	7128.110840
2068.298828	7295.984863
2066.777344	7159.579102
2065.257813	7194.208984
2063.736328	7260.054199
2062.214844	7079.374512
2060.693359	7130.429199
2059.171875	7192.959961
2057.648438	7148.717773
2056.126953	7134.048828
2054.603516	7112.819824
2053.080078	7029.234863
2051.556641	7142.586426
2050.033203	7098.402832
2048.507813	7131.324219
2046.984375	7119.957520
2045.458984	7264.341797
2043.933594	7138.215332
2042.408203	7139.963867
2040.882813	7246.568359
2039.355469	7073.023926
2037.830078	7040.394043
2036.302734	7038.887695
2034.775391	7204.353516
2033.248047	7209.359375
2031.718750	7181.636719
2030.191406	7157.198242
2028.662109	7080.431641
2027.134766	7173.761719
2025.605469	7095.389160
2024.076172	7190.310547
2022.544922	7035.161133
2021.015625	7149.660645
2019.484375	7131.799316
2017.955078	7171.104980
2016.423828	6968.741211
2014.892578	7119.070801
2013.359375	7106.126953
2011.828125	7168.248535
2010.294922	7189.559082
2008.761719	7217.384766
2007.230469	7160.401855
2005.695313	7017.034180
2004.162109	6992.718262
2002.628906	7036.858398
2001.093750	7089.125977
1999.558594	7159.289551
1998.023438	7134.963867
1996.488281	7139.957031
1994.953125	7024.481934
1993.417969	7187.371094
1991.880859	7195.604004
1990.343750	7145.266113
1988.806641	7093.322266
1987.269531	6981.231934
1985.732422	7018.766602
1984.193359	7057.910645
1982.656250	6996.278809
1981.117188	7050.034180
1979.578125	7077.775391
1978.039063	7082.766602
1976.500000	7118.607422
1974.958984	7016.441895
1973.417969	7013.327637
1971.878906	7130.296875
1970.337891	7174.208496
1968.796875	7042.920410
1967.253906	7096.562500
1965.712891	7099.918945
1964.169922	7130.831543
1962.626953	7171.454590
1961.083984	7160.209961
1959.541016	7072.830566
1957.998047	6967.672363
1956.455078	7042.300293
1954.910156	7014.902832
1953.365234	7019.888672
1951.820313	6992.506836
1950.275391	7130.164063
1948.730469	7102.770508
1947.183594	7070.536621
1945.638672	6949.387207
1944.091797	6991.560547
1942.544922	7015.937012
1940.998047	6995.059082
1939.449219	7138.973145
1937.902344	7077.698242
1936.353516	7068.124023
1934.804688	6889.031738
1933.255859	7084.498047
1931.707031	7026.513672
1930.158203	7031.479004
1928.607422	6907.392090
1927.058594	7097.849609
1925.507813	7014.111816
1923.957031	7159.327148
1922.406250	7051.435059
1920.853516	6935.531738
1919.302734	7024.283203
1917.750000	6905.212402
1916.197266	7061.569336
1914.644531	7027.873047
1913.091797	7013.507813
1911.539063	7047.429688
1909.984375	6965.486816
1908.431641	7060.534180
1906.876953	7044.564941
1905.322266	6938.553711
1903.767578	6948.339355
1902.210938	7012.770020
1900.656250	7106.098633
1899.099609	7175.288086
1897.542969	7077.392090
1895.986328	6870.331055
1894.429688	7010.173340
1892.873047	6947.689941
1891.314453	6983.134766
1889.755859	7029.796387
1888.199219	6951.305176
1886.640625	7052.487305
1885.080078	6975.627441
1883.521484	6942.087402
1881.960938	7067.250488
1880.402344	7036.910156
1878.841797	7152.386230
1877.281250	6958.646484
1875.720703	7010.027344
1874.158203	7029.361816
1872.597656	7083.907227
1871.035156	7018.388184
1869.472656	6954.497070
1867.910156	6913.031250
1866.347656	7074.722656
1864.783203	7022.053711
1863.220703	6971.005371
1861.656250	7003.101563
1860.091797	6961.667480
1858.527344	6947.414063
1856.962891	6910.801270
1855.396484	7078.641113
1853.832031	6987.723633
1852.265625	6987.844238
1850.699219	6976.791016
1849.132813	6913.080566
1847.566406	6941.934570
1845.998047	6889.423828
1844.431641	7002.794922
1842.863281	7034.799805
1841.294922	6983.895996
1839.726563	6961.701660
1838.156250	6931.549316
1836.587891	6996.996582
1835.017578	7071.972656
1833.449219	6959.007813
1831.878906	6968.683105
1830.306641	6997.455078
1828.736328	7180.584473
1827.166016	6980.180176
1825.593750	6935.755371
1824.021484	6991.546387
1822.449219	7053.673828
1820.876953	7042.645996
1819.304688	7057.053223
1817.730469	7015.835449
1816.158203	6936.505371
1814.583984	7066.879395
1813.009766	6939.928223
1811.435547	7043.254395
1809.859375	6940.172363
1808.285156	6819.676270
1806.708984	6826.169922
1805.132813	7026.202148
1803.556641	6942.242676
1801.980469	7013.720703
1800.404297	6959.920898
1798.826172	6980.642090
1797.248047	7090.099609
1795.671875	7148.809082
1794.093750	7044.335449
1792.513672	6982.666016
1790.935547	7090.445313
1789.355469	6914.811035
1787.777344	6924.429688
1786.197266	7032.152344
1784.617188	7084.457031
1783.035156	7027.600586
1781.455078	6929.651367
1779.873047	7138.467773
1778.292969	7117.991211
1776.710938	7037.468262
1775.128906	6907.997070
1773.544922	7085.046387
1771.962891	7012.477051
1770.378906	7070.999512
1768.794922	6947.944336
1767.212891	7096.422852
1765.626953	7009.708496
1764.042969	7008.227539
1762.458984	7098.234863
1760.873047	7115.659668
1759.287109	7215.065918
1757.701172	6981.812500
1756.115234	7068.595703
1754.529297	7106.494629
1752.941406	6974.235840
1751.355469	6916.059570
1749.767578	7116.161621
1748.179688	7133.550293
1746.591797	7128.894043
1745.001953	7021.947266
1743.414063	7116.439453
1741.824219	7248.644531
1740.234375	7177.912109
1738.644531	7281.744629
1737.054688	7005.094238
1735.462891	7240.943359
1733.873047	7355.695313
1732.281250	7302.294434
1730.689453	7239.491211
1729.097656	7321.190918
1727.505859	7292.950684
1725.912109	7325.941895
1724.320313	7198.839844
1722.726563	7330.687500
1721.132813	7324.430176
1719.539063	7459.331543
1717.945313	7443.640137
1716.349609	7384.058105
1714.755859	7291.585449
1713.160156	7362.127441
1711.564453	7427.938965
1709.968750	7454.562012
1708.371094	7484.305176
1706.775391	7485.852051
1705.177734	7562.537598
1703.580078	7573.457031
1701.982422	7579.676758
1700.384766	7517.058594
1698.787109	7639.029785
1697.187500	7670.250488
1695.587891	7701.457031
1693.990234	7759.223145
1692.390625	7837.280273
1690.789063	7830.932129
1689.189453	8002.666016
1687.587891	7699.547363
1685.988281	7924.324707
1684.386719	7843.027832
1682.785156	7791.419922
1681.181641	7909.922852
1679.580078	7995.612305
1677.976563	8134.297363
1676.373047	8163.761230
1674.769531	8249.340820
1673.166016	8362.941406
1671.562500	8292.594727
1669.957031	8638.299805
1668.353516	8681.642578
1666.748047	8791.938477
1665.142578	8919.315430
1663.537109	8998.376953
1661.929688	9024.483398
1660.324219	9260.658203
1658.716797	9426.720703
1657.109375	9664.264648
1655.501953	9750.856445
1653.894531	10008.441406
1652.285156	10303.225586
1650.677734	10447.128906
1649.068359	10516.385742
1647.458984	10602.701172
1645.849609	10864.488281
1644.240234	10977.089844
1642.628906	11007.359375
1641.019531	10994.154297
1639.408203	11198.213867
1637.796875	11420.804688
1636.185547	11381.146484
1634.572266	11408.192383
1632.960938	11439.877930
1631.347656	11587.814453
1629.734375	11726.387695
1628.121094	11860.252930
1626.507813	11953.780273
1624.894531	11952.785156
1623.279297	11996.698242
1621.664063	11878.026367
1620.048828	12174.242188
1618.433594	12354.263672
1616.818359	12217.022461
1615.203125	12271.655273
1613.585938	12270.587891
1611.968750	12328.277344
1610.351563	12341.109375
1608.734375	12341.570313
1607.117188	12468.742188
1605.498047	12479.988281
1603.878906	12522.122070
1602.261719	12559.602539
1600.640625	12672.720703
1599.021484	12784.245117
1597.402344	12864.855469
1595.781250	12892.969727
1594.162109	13107.729492
1592.541016	12918.314453
1590.919922	13035.831055
1589.296875	13224.211914
1587.675781	13173.607422
1586.052734	13497.483398
1584.429688	13453.002930
1582.806641	13621.105469
1581.183594	13722.916016
1579.560547	13732.301758
1577.935547	13701.659180
1576.312500	13775.681641
1574.687500	13861.980469
1573.062500	13945.164063
1571.435547	14074.453125
1569.810547	14286.720703
1568.183594	14295.963867
1566.558594	14521.923828
1564.931641	14291.384766
1563.304688	14484.983398
1561.675781	14707.682617
1560.048828	14764.427734
1558.419922	14851.855469
1556.791016	14985.295898
1555.162109	15140.165039
1553.533203	15233.589844
1551.904297	15132.145508
1550.273438	15190.252930
1548.642578	15127.195313
1547.011719	14981.375977
1545.380859	14929.116211
1543.750000	14588.779297
1542.119141	14109.166992
1540.486328	13867.183594
1538.853516	13590.080078
1537.220703	13388.118164
1535.587891	13091.333984
1533.955078	13073.219727
1532.320313	13027.570313
1530.685547	12784.593750
1529.052734	12731.375977
1527.416016	12724.054688
1525.781250	12537.863281
1524.146484	12532.113281
1522.509766	12535.533203
1520.873047	12516.033203
1519.236328	12505.706055
1517.599609	12712.241211
1515.962891	12866.774414
1514.324219	12955.598633
1512.687500	12997.072266
1511.048828	12843.214844
1509.410156	12643.657227
1507.771484	12683.642578
1506.130859	12592.469727
1504.492188	12338.208008
1502.851563	12055.093750
1501.210938	12003.733398
1499.570313	11981.341797
1497.927734	11680.206055
1496.287109	11738.605469
1494.644531	11595.998047
1493.001953	11633.077148
1491.359375	11677.749023
1489.716797	11460.686523
1488.074219	11462.778320
1486.429688	11280.834961
1484.785156	11251.030273
1483.140625	11164.986328
1481.496094	11375.371094
1479.851563	11444.337891
1478.207031	11522.390625
1476.560547	11497.118164
1474.914063	11515.895508
1473.267578	11621.208984
1471.621094	11847.914063
1469.972656	12025.956055
1468.326172	12103.775391
1466.677734	12190.662109
1465.029297	12277.509766
1463.380859	12333.992188
1461.732422	12593.596680
1460.082031	12813.678711
1458.431641	12779.083984
1456.783203	12689.960938
1455.132813	12720.537109
1453.480469	12572.402344
1451.830078	12269.896484
1450.177734	12233.937500
1448.527344	12069.353516
1446.875000	11794.384766
1445.220703	11551.302734
1443.568359	11467.127930
1441.916016	11510.004883
1440.261719	11159.803711
1438.607422	11158.894531
1436.953125	11185.184570
1435.298828	10989.378906
1433.642578	10845.011719
1431.988281	10638.791016
1430.332031	10476.443359
1428.675781	10345.864258
1427.019531	10239.486328
1425.361328	9863.077148
1423.705078	9717.628906
1422.046875	9721.548828
1420.388672	9755.624023
1418.730469	9750.487305
1417.072266	9816.189453
1415.412109	9883.369141
1413.753906	9878.205078
1412.093750	9937.809570
1410.433594	10117.855469
1408.773438	10335.459961
1407.111328	10498.781250
1405.451172	10705.672852
1403.789063	11007.258789
1402.126953	11389.940430
1400.464844	11758.918945
1398.802734	12023.990234
1397.138672	12215.285156
1395.474609	12217.130859
1393.812500	12194.932617
1392.146484	11911.350586
1390.482422	11602.359375
1388.818359	11461.679688
1387.152344	11381.112305
1385.486328	11546.732422
1383.820313	11896.854492
1382.154297	12140.302734
1380.488281	12478.139648
1378.820313	12698.857422
1377.154297	12834.017578
1375.486328	13186.468750
1373.818359	13475.821289
1372.148438	13502.839844
1370.480469	13451.950195
1368.810547	13261.798828
1367.140625	13071.729492
1365.470703	13032.939453
1363.800781	12790.617188
1362.130859	12660.625977
1360.458984	12526.203125
1358.787109	12480.083008
1357.115234	12387.625977
1355.443359	12610.661133
1353.771484	12697.579102
1352.097656	12732.154297
1350.423828	13421.109375
1348.751953	13831.927734
1347.076172	14291.846680
1345.402344	15120.351563
1343.728516	15863.405273
1342.052734	16618.070313
1340.376953	17573.833984
1338.701172	18377.015625
1337.025391	19065.001953
1335.347656	19912.234375
1333.671875	20375.960938
1331.994141	20532.449219
1330.316406	20560.716797
1328.638672	20648.560547
1326.960938	20435.492188
1325.281250	20170.394531
1323.601563	19667.203125
1321.921875	19268.423828
1320.242188	18817.734375
1318.562500	18144.066406
1316.880859	17612.005859
1315.201172	17081.664063
1313.519531	16374.622070
1311.837891	15828.432617
1310.154297	15399.891602
1308.472656	14946.279297
1306.789063	14605.765625
1305.105469	14030.738281
1303.421875	13562.874023
1301.738281	13000.204102
1300.054688	12549.098633
1298.369141	12124.900391
1296.683594	11893.751953
1294.998047	11471.367188
1293.312500	11115.898438
1291.626953	10852.506836
1289.939453	10559.584961
1288.253906	10557.249023
1286.566406	10437.867188
1284.878906	10222.253906
1283.189453	10163.715820
1281.501953	10254.744141
1279.812500	10191.781250
1278.123047	10189.524414
1276.433594	10351.505859
1274.744141	10383.235352
1273.052734	10610.175781
1271.363281	10430.385742
1269.671875	10648.341797
1267.980469	10740.571289
1266.289063	10463.342773
1264.595703	10319.197266
1262.904297	10350.877930
1261.210938	10270.315430
1259.517578	10002.291016
1257.824219	9917.412109
1256.128906	9668.767578
1254.435547	9585.473633
1252.740234	9354.711914
1251.044922	9290.693359
1249.349609	9341.705078
1247.652344	9349.946289
1245.957031	9283.021484
1244.259766	9363.466797
1242.562500	9362.855469
1240.865234	9338.679688
1239.167969	9109.847656
1237.468750	9063.655273
1235.769531	9195.566406
1234.072266	9243.545898
1232.371094	9147.334961
1230.671875	9160.002930
1228.972656	9100.613281
1227.271484	8889.826172
1225.570313	9136.237305
1223.869141	8868.225586
1222.167969	9042.541992
1220.464844	8858.390625
1218.763672	8943.052734
1217.060547	8797.176758
1215.357422	8839.246094
1213.654297	8529.095703
1211.949219	8729.658203
1210.246094	8509.147461
1208.541016	8498.445313
1206.835938	8440.829102
1205.130859	8592.855469
1203.423828	8447.310547
1201.718750	8329.668945
1200.011719	8338.057617
1198.304688	8385.985352
1196.597656	8495.386719
1194.888672	8407.114258
1193.181641	8345.223633
1191.472656	8407.735352
1189.763672	8331.242188
1188.054688	8270.870117
1186.343750	8364.061523
1184.634766	8290.550781
1182.923828	8155.685059
1181.212891	8266.371094
1179.501953	8168.093262
1177.791016	8195.470703
1176.078125	8107.473633
1174.365234	8118.791016
1172.652344	8166.593750
1170.939453	8107.845215
1169.226563	8094.350586
1167.511719	8053.146484
1165.798828	8013.418945
1164.083984	8067.019043
1162.369141	8021.473633
1160.652344	7873.935059
1158.937500	7825.538086
1157.220703	7745.115234
1155.503906	7749.195801
1153.787109	7679.017090
1152.070313	7616.147461
1150.351563	7695.930176
1148.632813	7602.528320
1146.916016	7848.112305
1145.195313	8047.045410
1143.476563	8001.608398
1141.757813	8087.024902
1140.037109	8098.279785
1138.316406	7922.083984
1136.595703	7830.225098
1134.875000	7793.598145
1133.152344	7588.546387
1131.429688	7626.028320
1129.708984	7499.482422
1127.984375	7458.606934
1126.261719	7368.423340
1124.539063	7362.404785
1122.814453	7157.724121
1121.089844	7109.710938
1119.365234	7026.932129
1117.640625	7163.007324
1115.914063	6938.270508
1114.187500	7003.328125
1112.462891	6933.678223
1110.734375	6921.972168
1109.007813	6803.156738
1107.281250	6740.833496
1105.552734	6766.794434
1103.824219	6717.524414
1102.095703	6659.599609
1100.367188	6707.246582
1098.636719	6666.694824
1096.908203	6683.968262
1095.177734	6561.082031
1093.447266	6678.042480
1091.714844	6683.746094
1089.984375	6680.782715
1088.251953	6625.853027
1086.519531	6559.401367
1084.787109	6637.268066
1083.054688	6797.324219
1081.320313	6772.701660
1079.585938	6673.110840
1077.851563	6834.489258
1076.117188	6782.489258
1074.382813	6847.226563
1072.648438	6861.512695
1070.912109	6857.068359
1069.175781	6829.586914
1067.439453	6898.570313
1065.701172	6745.873047
1063.964844	6673.826172
1062.226563	6663.671875
1060.488281	6600.304688
1058.750000	6559.973145
1057.011719	6660.547363
1055.271484	6555.540527
1053.531250	6496.563965
1051.791016	6464.910156
1050.050781	6563.975098
1048.310547	6520.831055
1046.568359	6563.845703
1044.826172	6612.581543
1043.083984	6533.578613
1041.341797	6543.561523
1039.599609	6542.063965
1037.855469	6635.211914
1036.113281	6642.294922
1034.369141	6669.441406
1032.623047	6702.306641
1030.878906	6902.782715
1029.132813	6868.256348
1027.386719	6859.521973
1025.640625	6940.989258
1023.894531	7036.732422
1022.148438	7098.085449
1020.400391	7249.546387
1018.652344	7184.944824
1016.904297	7174.715332
1015.156250	7314.613770
1013.406250	7260.045410
1011.658203	7296.963867
1009.908203	7198.131348
1008.158203	7082.202637
1006.408203	7040.587891
1004.656250	7010.413574
1002.904297	7071.609863
1001.152344	6987.210449
999.400391	6821.521484
997.648438	6765.746094
995.896484	6654.376465
994.142578	6618.625000
992.388672	6558.656738
990.634766	6501.564941
988.878906	6537.113281
987.125000	6522.786621
985.369141	6428.712402
983.613281	6469.946289
981.857422	6548.171875
980.099609	6549.508301
978.343750	6637.637695
976.585938	6678.782715
974.828125	6574.843262
973.070313	6520.716309
971.310547	6553.328613
969.552734	6681.146484
967.792969	6717.967285
966.033203	6795.967285
964.273438	6741.848633
962.511719	6856.723145
960.750000	7001.354492
958.990234	7082.052734
957.226563	7122.982910
955.464844	7139.776855
953.703125	7024.664551
951.939453	6757.884766
950.175781	6722.298340
948.412109	6649.878418
946.648438	6428.711426
944.882813	6356.391602
943.117188	6337.923828
941.351563	6312.383789
939.585938	6252.879883
937.820313	6247.185059
936.052734	6165.083008
934.285156	6132.530762
932.517578	6085.850586
930.750000	6115.546875
928.982422	6160.778809
927.212891	6296.443848
925.443359	6279.438965
923.673828	6245.489746
921.904297	6253.925781
920.132813	6255.297852
918.361328	6128.203125
916.591797	6155.006836
914.818359	6116.889160
913.046875	6059.038574
911.275391	6097.121094
909.501953	6009.689453
907.728516	6020.979492
905.955078	5966.021484
904.179688	5826.543457
902.406250	5881.537598
900.630859	6063.263672
898.855469	5974.550293
897.080078	5963.304688
895.302734	6049.177246
893.525391	6004.147461
891.750000	6014.002930
889.970703	5936.652832
888.193359	6033.697754
886.416016	6023.856445
884.636719	5954.989258
882.857422	5893.179199
881.078125	5855.279297
879.296875	5856.722168
877.517578	5712.130859
875.736328	5684.125000
873.955078	5772.622070
872.173828	5661.826660
870.390625	5573.527344
868.609375	5580.640625
866.826172	5533.064453
865.042969	5516.351074
863.259766	5526.273926
861.474609	5454.921387
859.689453	5497.073730
857.904297	5585.423828
856.119141	5600.920410
854.333984	5655.605957
852.546875	5580.105469
850.761719	5550.814453
848.974609	5611.067871
847.185547	5507.656738
845.398438	5600.050781
843.609375	5535.832031
841.822266	5601.620605
840.031250	5577.951660
838.242188	5724.722168
836.453125	5621.426270
834.662109	5622.901367
832.871094	5717.905273
831.080078	5627.243164
829.289063	5606.388672
827.496094	5628.788574
825.703125	5508.921387
823.910156	5577.345215
822.117188	5548.156250
820.324219	5468.807617
818.529297	5687.673340
816.734375	5542.855957
814.939453	5586.120605
813.144531	5614.047852
811.347656	5550.086914
809.550781	5430.486816
807.755859	5578.088867
805.957031	5518.353027
804.160156	5411.359375
802.361328	5462.922852
