#Wave		#Intensity
1585.210938	21984.279297
1584.209961	22069.199219
1583.208984	22069.621094
1582.208008	22012.619141
1581.206055	22187.777344
1580.204102	22365.357422
1579.202148	21936.564453
1578.200195	22203.925781
1577.198242	22144.457031
1576.195313	22349.326172
1575.192383	22192.623047
1574.189453	21789.230469
1573.186523	22108.671875
1572.182617	21894.812500
1571.178711	21738.330078
1570.174805	21716.394531
1569.170898	21686.998047
1568.166992	21719.847656
1567.162109	21792.503906
1566.158203	21556.574219
1565.153320	21422.744141
1564.147461	21470.541016
1563.142578	21331.806641
1562.136719	21605.855469
1561.130859	21954.361328
1560.125000	21654.068359
1559.119141	21893.089844
1558.113281	22032.642578
1557.106445	22261.548828
1556.099609	22559.890625
1555.092773	22917.691406
1554.084961	23039.537109
1553.078125	22982.652344
1552.070313	23382.320313
1551.062500	23814.070313
1550.054688	23908.343750
1549.045898	24515.857422
1548.038086	24895.041016
1547.029297	25395.515625
1546.020508	25918.085938
1545.011719	26549.451172
1544.001953	27267.250000
1542.992188	27774.246094
1541.982422	28441.970703
1540.972656	28980.693359
1539.962891	29467.214844
1538.952148	29483.384766
1537.942383	29952.281250
1536.931641	30156.324219
1535.919922	30508.656250
1534.909180	30141.365234
1533.897461	30026.359375
1532.886719	29555.519531
1531.874023	29324.548828
1530.862305	28720.644531
1529.850586	27786.027344
1528.837891	27355.544922
1527.825195	26875.863281
1526.812500	26275.429688
1525.799805	25815.908203
1524.786133	25201.136719
1523.772461	24796.296875
1522.758789	24260.910156
1521.745117	24068.486328
1520.731445	23701.107422
1519.716797	23294.445313
1518.702148	23097.410156
1517.687500	22816.687500
1516.672852	22972.072266
1515.657227	22851.566406
1514.642578	22945.322266
1513.626953	22746.097656
1512.610352	22916.130859
1511.594727	22623.484375
1510.579102	22468.728516
1509.562500	22690.363281
1508.545898	22705.337891
1507.529297	22501.484375
1506.511719	22676.267578
1505.494141	22519.197266
1504.477539	22600.533203
1503.458984	22313.341797
1502.441406	22583.800781
1501.423828	22618.412109
1500.405273	22314.207031
1499.386719	22672.859375
1498.368164	22459.568359
1497.348633	22516.253906
1496.330078	22560.648438
1495.310547	22597.667969
1494.291016	22465.478516
1493.271484	22507.402344
1492.250977	22424.306641
1491.231445	22571.589844
1490.210938	22444.414063
1489.190430	22589.179688
1488.168945	22826.947266
1487.148438	22496.570313
1486.126953	22538.417969
1485.105469	22707.515625
1484.083984	23106.556641
1483.061523	22942.746094
1482.040039	22950.220703
1481.017578	23317.167969
1479.995117	23172.972656
1478.971680	23305.054688
1477.949219	23832.996094
1476.925781	23705.882813
1475.902344	24138.246094
1474.878906	24367.708984
1473.855469	24916.962891
1472.831055	25341.478516
1471.806641	25665.738281
1470.782227	26138.726563
1469.757813	26350.451172
1468.733398	27132.896484
1467.708008	27546.748047
1466.682617	27892.154297
1465.657227	29054.089844
1464.631836	29857.253906
1463.605469	30318.927734
1462.579102	31377.306641
1461.552734	32169.740234
1460.526367	32708.572266
1459.500000	33756.050781
1458.472656	34106.886719
1457.445313	35255.855469
1456.417969	35474.835938
1455.390625	36000.250000
1454.362305	35601.179688
1453.334961	35766.441406
1452.306641	34725.730469
1451.277344	34947.011719
1450.249023	34008.964844
1449.219727	32910.945313
1448.191406	32175.337891
1447.162109	31522.609375
1446.131836	30556.910156
1445.102539	29606.173828
1444.072266	28774.767578
1443.041992	28494.570313
1442.011719	27629.767578
1440.981445	27165.566406
1439.950195	26745.210938
1438.918945	26121.353516
1437.887695	25679.568359
1436.856445	25267.048828
1435.825195	25160.023438
1434.792969	25057.884766
1433.760742	24718.414063
1432.728516	24495.324219
1431.696289	24550.759766
1430.663086	24044.574219
1429.629883	24092.818359
1428.596680	23836.162109
1427.563477	23521.550781
1426.530273	23448.935547
1425.496094	23226.423828
1424.461914	23224.009766
1423.427734	23124.908203
1422.393555	22767.265625
1421.358398	22588.566406
1420.323242	22482.408203
1419.288086	22282.101563
1418.252930	22180.878906
1417.217773	22338.009766
1416.181641	22287.500000
1415.145508	22099.460938
1414.109375	22567.734375
1413.073242	22468.962891
1412.036133	22326.820313
1411.000000	22553.638672
1409.962891	22659.830078
1408.924805	22915.402344
1407.887695	23007.013672
1406.849609	23233.494141
1405.812500	23903.064453
1404.773438	24329.136719
1403.735352	24555.195313
1402.697266	25161.482422
1401.658203	25254.910156
1400.619141	25408.447266
1399.580078	25792.857422
1398.540039	25775.455078
1397.500977	25962.447266
1396.460938	26384.962891
1395.420898	26189.576172
1394.380859	26157.679688
1393.339844	25743.781250
1392.298828	25603.894531
1391.257813	25603.355469
1390.216797	25667.644531
1389.175781	25518.251953
1388.133789	25371.322266
1387.091797	25471.607422
1386.049805	25806.960938
1385.007813	26166.158203
1383.964844	26450.863281
1382.922852	26658.724609
1381.879883	26974.365234
1380.835938	27347.392578
1379.792969	27720.259766
1378.749023	27894.138672
1377.706055	28127.818359
1376.661133	28342.242188
1375.617188	28659.521484
1374.573242	28361.515625
1373.528320	28365.158203
1372.483398	28486.037109
1371.438477	28747.994141
1370.392578	28928.525391
1369.347656	28834.007813
1368.301758	28694.105469
1367.255859	28346.322266
1366.208984	28605.636719
1365.163086	28559.037109
1364.116211	28636.662109
1363.069336	28762.015625
1362.022461	28708.244141
1360.974609	29129.523438
1359.927734	28627.017578
1358.879883	29181.753906
1357.832031	28736.697266
1356.783203	29541.607422
1355.735352	30033.796875
1354.686523	30089.494141
1353.637695	30800.648438
1352.588867	30896.669922
1351.539063	31340.503906
1350.490234	31777.003906
1349.440430	32553.886719
1348.390625	33209.003906
1347.339844	34135.234375
1346.290039	34544.593750
1345.239258	35137.007813
1344.188477	36012.281250
1343.137695	36473.312500
1342.085938	37317.019531
1341.034180	37701.492188
1339.982422	37864.734375
1338.930664	38496.093750
1337.878906	39269.750000
1336.826172	39361.285156
1335.773438	39642.785156
1334.720703	39698.574219
1333.667969	39417.218750
1332.614258	39195.316406
1331.561523	39137.250000
1330.507813	39027.007813
1329.453125	38859.878906
1328.399414	38346.562500
1327.344727	37532.328125
1326.290039	37213.890625
1325.235352	36746.265625
1324.180664	36421.011719
1323.125000	36403.878906
1322.070313	35998.296875
1321.014648	35919.683594
1319.958008	35568.824219
1318.902344	35154.195313
1317.845703	35127.867188
1316.789063	34805.781250
1315.732422	34079.304688
1314.675781	33679.519531
1313.618164	33185.316406
1312.560547	32466.724609
1311.502930	31809.888672
1310.445313	30534.181641
1309.386719	29998.517578
1308.329102	29430.007813
1307.270508	28731.845703
1306.210938	28237.033203
1305.152344	27489.837891
1304.092773	27052.134766
1303.033203	26581.580078
1301.973633	26217.382813
1300.914063	26046.750000
1299.853516	25567.265625
1298.792969	25389.763672
1297.732422	25143.976563
1296.671875	24862.941406
1295.611328	24702.187500
1294.549805	24732.310547
1293.488281	24618.751953
1292.426758	24521.722656
1291.364258	24551.859375
1290.302734	24709.080078
1289.240234	24583.849609
1288.177734	24599.832031
1287.114258	24239.453125
1286.051758	24168.484375
1284.988281	24203.347656
1283.924805	24219.390625
1282.861328	24066.207031
1281.796875	24173.906250
1280.732422	24551.718750
1279.667969	24182.474609
1278.603516	24402.791016
1277.539063	24334.240234
1276.473633	24488.705078
1275.408203	24586.781250
1274.342773	24600.347656
1273.277344	24857.865234
1272.210938	24650.912109
1271.145508	24655.072266
1270.079102	24818.638672
1269.011719	24410.255859
1267.945313	24454.294922
1266.877930	24231.238281
1265.810547	24148.808594
1264.743164	23731.539063
1263.674805	23377.660156
1262.607422	23412.498047
1261.539063	22951.179688
1260.470703	23007.148438
1259.401367	22735.589844
1258.333008	22571.728516
1257.263672	22113.310547
1256.194336	22108.619141
1255.125000	21888.896484
1254.054688	21849.199219
1252.985352	21589.902344
1251.915039	21592.326172
1250.843750	21428.939453
1249.773438	21230.597656
1248.702148	20978.650391
1247.630859	20806.158203
1246.559570	21035.070313
1245.488281	21016.603516
1244.416016	20839.542969
1243.343750	20690.539063
1242.271484	20553.253906
1241.199219	20122.335938
1240.125977	20502.566406
1239.053711	20514.515625
1237.980469	20500.833984
1236.906250	20561.679688
1235.833008	20401.302734
1234.758789	20564.568359
1233.684570	20315.814453
1232.610352	20313.816406
1231.536133	20283.900391
1230.460938	20284.232422
1229.385742	20252.007813
1228.310547	20426.710938
1227.235352	20331.707031
1226.159180	20494.695313
1225.083008	20402.037109
1224.006836	20388.396484
1222.930664	20483.914063
1221.853516	20472.580078
1220.777344	20872.144531
1219.700195	20742.361328
1218.622070	21007.109375
1217.544922	21055.984375
1216.466797	21132.671875
1215.388672	21378.611328
1214.310547	21445.919922
1213.232422	21707.908203
1212.153320	22027.718750
1211.074219	22166.667969
1209.995117	22562.685547
1208.916016	22560.181641
1207.835938	22453.476563
1206.755859	22351.447266
1205.675781	22494.796875
1204.595703	22487.673828
1203.514648	22549.957031
1202.434570	22454.925781
1201.353516	22165.679688
1200.271484	22530.863281
1199.190430	22213.982422
1198.108398	22257.759766
1197.026367	22100.498047
1195.944336	22038.013672
1194.862305	21689.167969
1193.779297	21432.833984
1192.696289	20984.994141
1191.613281	20945.876953
1190.530273	20627.556641
1189.446289	20685.425781
1188.362305	20611.794922
1187.278320	20314.500000
1186.194336	20137.222656
1185.109375	19985.375000
1184.024414	19750.625000
1182.939453	19723.345703
1181.854492	19516.394531
1180.768555	19274.980469
1179.683594	19236.304688
1178.597656	19324.259766
1177.510742	19239.552734
1176.424805	19152.578125
1175.337891	19194.476563
1174.250977	19040.841797
1173.164063	19188.527344
1172.077148	18809.636719
1170.989258	19205.564453
1169.901367	19056.648438
1168.813477	19027.277344
1167.724609	18894.541016
1166.636719	18904.255859
1165.547852	19214.769531
1164.458984	19059.117188
1163.369141	19273.062500
1162.280273	19243.671875
1161.190430	19395.535156
1160.100586	19659.728516
1159.010742	19926.097656
1157.919922	19731.505859
1156.829102	20011.494141
1155.738281	20215.734375
1154.647461	20170.132813
1153.555664	20204.728516
1152.464844	19904.923828
1151.373047	20170.828125
1150.280273	20049.722656
1149.188477	20162.125000
1148.095703	19800.798828
1147.002930	19789.660156
1145.910156	19776.240234
1144.817383	19733.093750
1143.723633	19495.626953
1142.629883	19651.425781
1141.536133	19473.494141
1140.441406	19398.455078
1139.347656	18928.253906
1138.252930	19104.587891
1137.158203	18894.955078
1136.062500	18858.908203
1134.967773	19083.070313
1133.872070	18864.443359
1132.776367	18762.261719
1131.679688	18867.687500
1130.583984	19077.962891
1129.487305	19014.554688
1128.390625	18793.894531
1127.292969	19092.921875
1126.196289	18954.359375
1125.098633	19011.759766
1124.000977	18825.443359
1122.903320	18725.732422
1121.804688	18851.433594
1120.706055	18956.593750
1119.607422	18881.943359
1118.508789	18695.849609
1117.409180	18741.833984
1116.310547	18737.769531
1115.210938	18958.781250
1114.110352	18700.089844
1113.010742	18673.306641
1111.910156	18351.167969
1110.809570	18560.708984
1109.708984	18686.126953
1108.607422	18586.705078
1107.506836	18371.552734
1106.405273	18560.474609
1105.303711	18340.878906
1104.201172	18436.708984
1103.098633	18212.697266
1101.996094	18195.132813
1100.893555	18268.255859
1099.791016	18067.087891
1098.687500	18151.537109
1097.583984	17859.853516
1096.480469	18003.199219
1095.376953	18194.039063
1094.272461	18135.738281
1093.167969	18272.134766
1092.063477	18444.681641
1090.958008	18332.056641
1089.853516	18552.015625
1088.748047	18649.748047
1087.642578	18618.548828
1086.536133	18989.765625
1085.430664	19322.392578
1084.324219	19291.062500
1083.217773	19445.000000
1082.110352	19689.216797
1081.003906	20019.136719
1079.896484	20127.654297
1078.789063	20371.556641
1077.680664	20586.013672
1076.573242	20470.962891
1075.464844	20640.185547
1074.356445	20705.589844
1073.247070	20721.359375
1072.138672	20847.578125
1071.029297	20308.875000
1069.919922	20119.666016
1068.809570	20261.699219
1067.700195	19804.552734
1066.589844	19743.925781
1065.479492	19739.607422
1064.368164	19363.900391
1063.257813	19303.404297
1062.146484	19020.199219
1061.035156	18908.066406
1059.922852	18487.886719
1058.811523	18542.294922
1057.699219	18518.001953
1056.586914	18475.740234
1055.473633	18384.062500
1054.361328	18119.451172
1053.248047	17677.527344
1052.134766	18053.126953
1051.021484	17878.552734
1049.907227	17814.033203
1048.792969	17971.687500
1047.678711	17738.914063
1046.564453	17952.587891
1045.449219	17832.039063
1044.333984	17756.380859
1043.218750	17537.300781
1042.103516	17757.546875
1040.987305	17832.064453
1039.871094	17707.187500
1038.754883	17768.242188
1037.638672	17782.248047
1036.521484	17841.017578
1035.404297	18130.277344
1034.287109	17911.486328
1033.169922	17656.998047
1032.051758	17807.437500
1030.933594	17669.355469
1029.815430	17947.148438
1028.697266	17851.560547
1027.578125	17865.505859
1026.458984	17904.021484
1025.339844	17835.302734
1024.220703	17730.884766
1023.100586	18093.128906
1021.980469	17937.357422
1020.860352	17846.371094
1019.740234	17965.148438
1018.619141	18021.416016
1017.498047	17975.068359
1016.376953	18004.548828
1015.255859	17817.785156
1014.133789	17822.769531
1013.011719	17872.312500
1011.889648	17950.792969
1010.767578	17973.556641
1009.644531	18123.232422
1008.521484	17745.224609
1007.398438	17906.009766
1006.274414	17784.115234
1005.151367	17871.400391
1004.027344	17885.246094
1002.902344	17734.523438
1001.778320	17984.056641
1000.653320	17897.835938
999.528320	18202.777344
998.403320	18105.435547
997.278320	18041.453125
996.152344	18050.787109
995.026367	17937.996094
993.900391	18340.253906
992.773438	18413.871094
991.646484	18536.267578
990.519531	18773.962891
989.392578	18721.011719
988.265625	18781.167969
987.137695	18927.753906
986.009766	18817.171875
984.881836	19278.339844
983.752930	19187.664063
982.624023	19227.707031
981.495117	19106.078125
980.366211	19115.123047
979.236328	19250.330078
978.106445	19013.697266
976.976563	18675.394531
975.846680	18857.054688
974.715820	18740.082031
973.585938	18388.794922
972.454102	18313.974609
971.323242	18161.835938
970.191406	17784.392578
969.060547	17886.472656
967.927734	17957.587891
966.795898	17576.019531
965.663086	17854.677734
964.530273	17883.812500
963.397461	17851.150391
962.264648	18111.908203
961.130859	18249.035156
959.997070	18304.511719
958.863281	18225.480469
957.729492	18166.318359
956.594727	18204.142578
955.459961	18250.759766
954.325195	18312.773438
953.189453	18154.542969
952.053711	17941.339844
950.917969	17842.691406
949.782227	17801.302734
948.646484	17645.519531
947.509766	17564.595703
946.373047	17340.757813
945.235352	17539.171875
944.098633	17660.556641
942.960938	17623.650391
941.823242	17555.996094
940.685547	17912.345703
939.546875	17510.822266
938.408203	17568.394531
937.269531	17742.287109
936.129883	17832.701172
934.991211	17708.029297
933.851563	17932.228516
932.711914	17869.001953
931.571289	18143.496094
930.431641	18183.287109
929.291016	18209.906250
928.149414	18256.236328
927.008789	18289.396484
925.867188	18370.728516
924.725586	18627.214844
923.583984	18366.886719
922.441406	18310.240234
921.299805	17938.486328
920.157227	17956.349609
919.013672	17836.392578
917.871094	17725.236328
916.727539	17292.718750
915.583984	17398.142578
914.439453	17333.050781
913.295898	17257.060547
912.151367	17277.220703
911.006836	17188.169922
909.861328	17110.076172
908.716797	17370.384766
907.571289	17045.654297
906.424805	16972.003906
905.279297	17055.457031
904.132813	16962.205078
902.986328	17017.271484
901.839844	16679.896484
900.692383	16983.474609
899.545898	16907.750000
898.398438	17115.277344
897.250000	17213.804688
896.102539	16902.886719
894.954102	17105.917969
893.805664	17156.490234
892.656250	17180.921875
891.507813	16992.125000
890.358398	17051.384766
889.208984	17147.583984
888.058594	16748.019531
886.908203	16865.978516
885.758789	16777.425781
884.607422	16862.732422
883.457031	16826.351563
882.305664	16618.416016
881.154297	16886.083984
880.002930	16634.810547
878.850586	16819.878906
877.698242	16831.277344
876.545898	16732.033203
875.393555	16554.755859
874.240234	16542.349609
873.086914	16532.117188
871.933594	16493.710938
870.780273	16520.326172
869.625977	16640.083984
868.471680	16376.421875
867.317383	16461.507813
866.162109	16351.711914
865.007813	16447.583984
863.852539	16677.578125
862.696289	16459.628906
861.541016	16499.171875
860.384766	16370.021484
859.228516	16491.718750
858.072266	16377.755859
856.915039	16229.266602
855.757813	16569.123047
854.600586	16297.532227
853.442383	16393.187500
852.285156	16421.865234
851.126953	16433.261719
849.968750	16666.935547
848.809570	16663.164063
847.650391	16430.740234
846.491211	16690.130859
845.332031	16309.028320
844.171875	16458.388672
843.012695	16325.351563
841.851563	16399.222656
840.691406	16595.847656
839.530273	16661.007813
838.369141	16528.041016
837.208008	16552.281250
836.046875	16690.578125
834.884766	16475.923828
833.722656	16439.919922
832.560547	16386.724609
831.397461	16447.517578
830.234375	16551.277344
829.071289	16281.008789
827.908203	16638.318359
826.744141	16312.292969
825.580078	16357.991211
824.416016	16446.615234
823.251953	16399.945313
822.086914	16602.273438
820.921875	16368.893555
819.756836	16504.628906
818.590820	16505.169922
817.425781	16488.552734
816.259766	16497.671875
815.092773	16553.939453
813.926758	16295.163086
812.759766	16375.016602
811.592773	16375.578125
810.424805	16487.496094
809.257813	16541.554688
808.089844	16460.734375
806.920898	16133.841797
805.752930	16228.591797
804.583984	16310.462891
803.415039	16437.205078
802.246094	16084.953125
801.076172	16386.970703
799.906250	16216.544922
798.736328	16659.410156
797.566406	16196.343750
796.395508	16218.283203
795.224609	16440.917969
794.053711	16569.523438
792.881836	16751.425781
791.710938	16837.224609
790.538086	17046.710938
789.366211	17330.746094
788.194336	17407.822266
787.021484	17455.015625
785.848633	17824.011719
784.674805	17875.347656
783.500977	17596.458984
782.327148	17447.615234
781.153320	17447.894531
779.979492	17475.845703
778.804688	17310.099609
777.629883	17182.730469
776.454102	17270.287109
775.279297	16862.228516
774.103516	16915.792969
772.927734	16941.693359
771.750977	17075.978516
770.575195	17072.078125
769.398438	17231.763672
768.220703	17100.384766
767.043945	17338.558594
765.866211	17684.896484
764.688477	17500.437500
763.510742	17925.093750
762.332031	17997.373047
761.153320	18156.582031
759.974609	18835.265625
758.794922	19346.148438
757.616211	20081.478516
756.436523	20983.880859
755.255859	21966.380859
754.076172	23401.720703
752.895508	25499.242188
751.714844	27439.126953
750.533203	30190.947266
749.352539	33354.171875
748.170898	36331.875000
746.988281	38751.894531
745.806641	41101.011719
744.624023	41943.664063
743.441406	42602.023438
742.258789	42480.253906
741.075195	41895.824219
