#Wave		#Intensity
2109.224609	1887.176880
2107.712891	1900.408691
2106.201172	1880.154297
2104.687500	1914.466064
2103.175781	1862.812500
2101.662109	1867.367554
2100.150391	1769.485474
2098.636719	1793.880737
2097.123047	1849.643188
2095.607422	2006.099487
2094.093750	1937.985596
2092.578125	1927.665039
2091.064453	1909.098755
2089.548828	1893.839844
2088.033203	1919.820801
2086.517578	1924.354004
2085.000000	1892.615479
2083.484375	1907.042114
2081.966797	1862.137817
2080.449219	1807.367554
2078.931641	1856.394409
2077.414063	1880.697510
2075.894531	1903.343750
2074.376953	1957.256714
2072.857422	1953.544189
2071.337891	1890.597900
2069.818359	1913.222412
2068.298828	1823.996216
2066.777344	1917.333252
2065.257813	1875.821045
2063.736328	1955.957520
2062.214844	1893.091797
2060.693359	1930.473267
2059.171875	1864.354736
2057.648438	1901.726440
2056.126953	1865.196655
2054.603516	1955.081665
2053.080078	1875.885010
2051.556641	1914.863037
2050.033203	1875.080688
2048.507813	1932.083740
2046.984375	1928.390137
2045.458984	1880.433350
2043.933594	1873.474121
2042.408203	1910.763794
2040.882813	1869.395142
2039.355469	1867.356934
2037.830078	1901.348633
2036.302734	1907.491089
2034.775391	1895.624146
2033.248047	1909.948242
2031.718750	1884.995605
2030.191406	1846.966187
2028.662109	1915.265747
2027.134766	1962.278076
2025.605469	1881.749512
2024.076172	1951.632324
2022.544922	1889.116455
2021.015625	1869.106934
2019.484375	1837.671631
2017.955078	1923.835449
2016.423828	1954.447754
2014.892578	1847.921997
2013.359375	1916.075562
2011.828125	1847.133545
2010.294922	1907.101074
2008.761719	1851.238770
2007.230469	1867.151001
2005.695313	1900.990234
2004.162109	1957.635132
2002.628906	1874.105347
2001.093750	1933.990479
1999.558594	1873.306763
1998.023438	1827.306396
1996.488281	1947.409058
1994.953125	1863.970215
1993.417969	1853.807861
1991.880859	1973.828125
1990.343750	1939.243408
1988.806641	1925.818359
1987.269531	1866.865723
1985.732422	1913.617920
1984.193359	1950.597168
1982.656250	1872.174927
1981.117188	1948.142700
1979.578125	1916.863647
1978.039063	1931.072998
1976.500000	1878.701904
1974.958984	1925.381836
1973.417969	1946.072632
1971.878906	1875.881470
1970.337891	1878.727661
1968.796875	1888.060669
1967.253906	1860.090698
1965.712891	1856.452881
1964.169922	1898.204956
1962.626953	1980.455933
1961.083984	1910.361450
1959.541016	1888.896118
1957.998047	1857.722046
1956.455078	1883.236450
1954.910156	1920.072632
1953.365234	1880.818604
1951.820313	1946.768311
1950.275391	1855.751831
1948.730469	1984.764160
1947.183594	1982.725952
1945.638672	1869.123291
1944.091797	1899.441284
1942.544922	1915.200562
1940.998047	1971.349609
1939.449219	1919.235107
1937.902344	1913.982788
1936.353516	1842.524414
1934.804688	1874.423706
1933.255859	1878.869019
1931.707031	1907.519409
1930.158203	1868.392090
1928.607422	1863.156860
1927.058594	1933.724609
1925.507813	1912.353271
1923.957031	1936.129761
1922.406250	1929.272705
1920.853516	1946.589722
1919.302734	1922.011475
1917.750000	1899.054199
1916.197266	1906.704224
1914.644531	1983.583008
1913.091797	1981.553467
1911.539063	1918.368652
1909.984375	1905.090454
1908.431641	1907.904663
1906.876953	1893.025757
1905.322266	1937.649414
1903.767578	1945.277832
1902.210938	1933.614990
1900.656250	1918.743042
1899.099609	1916.730591
1897.542969	1948.451294
1895.986328	1960.886963
1894.429688	1899.458374
1892.873047	1980.926392
1891.314453	1953.223389
1889.755859	1864.556885
1888.199219	1915.499268
1886.640625	1948.776855
1885.080078	1872.995972
1883.521484	1906.268433
1881.960938	1969.981934
1880.402344	1905.462524
1878.841797	1853.788208
1877.281250	1912.666626
1875.720703	1963.512329
1874.158203	1950.287598
1872.597656	1873.033081
1871.035156	1919.053101
1869.472656	1897.844849
1867.910156	1959.838745
1866.347656	1919.436279
1864.783203	1946.217041
1863.220703	1982.579468
1861.656250	1905.431885
1860.091797	1901.833008
1858.527344	1946.170776
1856.962891	1918.602051
1855.396484	1918.196777
1853.832031	1946.534546
1852.265625	1928.561890
1850.699219	1944.116089
1849.132813	1932.534790
1847.566406	1924.149170
1845.998047	1979.572876
1844.431641	1846.785767
1842.863281	1956.414185
1841.294922	1919.335938
1839.726563	1950.806519
1838.156250	1881.875732
1836.587891	1970.693237
1835.017578	2006.911133
1833.449219	1945.974243
1831.878906	1967.852905
1830.306641	1988.130493
1828.736328	1917.687134
1827.166016	1955.468750
1825.593750	1972.554321
1824.021484	1926.015137
1822.449219	1965.360962
1820.876953	1945.868774
1819.304688	1972.478149
1817.730469	1930.745239
1816.158203	1968.467651
1814.583984	1963.286743
1813.009766	1966.048340
1811.435547	2024.379883
1809.859375	2030.302124
1808.285156	2010.828369
1806.708984	1959.628052
1805.132813	1900.517090
1803.556641	1873.152466
1801.980469	1994.858765
1800.404297	1988.095947
1798.826172	1982.920898
1797.248047	1966.654785
1795.671875	1990.005371
1794.093750	2054.531738
1792.513672	1916.313354
1790.935547	2028.329712
1789.355469	1970.911133
1787.777344	1916.682129
1786.197266	1925.771729
1784.617188	2017.124390
1783.035156	2007.208008
1781.455078	1992.551514
1779.873047	1974.739014
1778.292969	1971.160400
1776.710938	1980.226318
1775.128906	1979.807983
1773.544922	2007.824707
1771.962891	1947.383789
1770.378906	1972.237305
1768.794922	1979.714111
1767.212891	1942.993042
1765.626953	1948.894653
1764.042969	1939.016602
1762.458984	1963.844971
1760.873047	1905.079102
1759.287109	1953.554810
1757.701172	1949.989136
1756.115234	1990.554321
1754.529297	1964.922119
1752.941406	1964.506836
1751.355469	2009.768188
1749.767578	1973.124756
1748.179688	1972.707642
1746.591797	1969.142456
1745.001953	1954.562622
1743.414063	2002.924438
1741.824219	1975.759033
1740.234375	2035.104736
1738.644531	1967.061646
1737.054688	2029.527954
1735.462891	2010.238037
1733.873047	2069.525879
1732.281250	2087.940918
1730.689453	2013.674927
1729.097656	1986.552246
1727.505859	2036.374023
1725.912109	1985.711792
1724.320313	2051.206543
1722.726563	2077.446533
1721.132813	2037.788574
1719.539063	2078.135742
1717.945313	2072.991699
1716.349609	2005.140259
1714.755859	2026.659546
1713.160156	2056.004883
1711.564453	2019.534546
1709.968750	2041.036865
1708.371094	2046.869019
1706.775391	2041.738281
1705.177734	2047.567627
1703.580078	1993.921021
1701.982422	2051.394775
1700.384766	2010.285156
1698.787109	2028.628418
1697.187500	2004.742310
1695.587891	2026.205566
1693.990234	2069.542969
1692.390625	1980.026733
1690.789063	2009.293457
1689.189453	1993.246460
1687.587891	1960.026733
1685.988281	2032.999146
1684.386719	2002.906982
1682.785156	1979.070679
1681.181641	2047.310791
1679.580078	2099.920654
1677.976563	2058.920898
1676.373047	2095.911133
1674.769531	2118.853516
1673.166016	2029.552734
1671.562500	2061.849854
1669.957031	2066.086914
1668.353516	2117.055908
1666.748047	2150.871094
1665.142578	2102.143066
1663.537109	2137.503662
1661.929688	2188.413818
1660.324219	2205.066895
1658.716797	2168.814697
1657.109375	2171.465088
1655.501953	2222.324219
1653.894531	2265.387451
1652.285156	2221.380371
1650.677734	2320.375244
1649.068359	2217.328857
1647.458984	2277.444580
1645.849609	2252.109863
1644.240234	2292.005127
1642.628906	2322.568359
1641.019531	2346.909668
1639.408203	2366.584717
1637.796875	2336.602539
1636.185547	2343.861572
1634.572266	2433.313477
1632.960938	2390.931396
1631.347656	2329.964600
1629.734375	2379.064941
1628.121094	2452.937012
1626.507813	2539.171387
1624.894531	2434.855225
1623.279297	2463.759766
1621.664063	2503.489258
1620.048828	2544.749512
1618.433594	2465.281494
1616.818359	2613.291504
1615.203125	2645.219971
1613.585938	2672.495117
1611.968750	2701.304443
1610.351563	2747.106445
1608.734375	2768.159424
1607.117188	2773.750488
1605.498047	2731.445801
1603.878906	2777.201660
1602.261719	2784.331055
1600.640625	2769.841553
1599.021484	2772.338135
1597.402344	2717.731689
1595.781250	2709.437012
1594.162109	2616.301025
1592.541016	2552.508301
1590.919922	2653.733643
1589.296875	2619.250977
1587.675781	2553.956787
1586.052734	2561.116211
1584.429688	2555.947266
1582.806641	2576.966064
1581.183594	2625.695313
1579.560547	2643.610352
1577.935547	2635.348877
1576.312500	2765.601563
1574.687500	2735.775391
1573.062500	2693.655029
1571.435547	2759.214111
1569.810547	2721.719482
1568.183594	2799.542969
1566.558594	2719.018066
1564.931641	2738.413574
1563.304688	2674.836182
1561.675781	2602.069336
1560.048828	2592.298096
1558.419922	2630.127930
1556.791016	2545.136230
1555.162109	2581.425049
1553.533203	2510.289307
1551.904297	2488.274414
1550.273438	2481.606445
1548.642578	2596.081299
1547.011719	2471.344482
1545.380859	2423.299072
1543.750000	2450.363281
1542.119141	2406.938965
1540.486328	2476.884521
1538.853516	2378.340576
1537.220703	2345.676758
1535.587891	2351.296631
1533.955078	2340.078857
1532.320313	2267.660156
1530.685547	2310.008057
1529.052734	2304.923584
1527.416016	2324.307617
1525.781250	2334.510254
1524.146484	2274.397461
1522.509766	2307.528320
1520.873047	2299.393311
1519.236328	2280.569092
1517.599609	2287.714844
1515.962891	2239.890625
1514.324219	2214.984619
1512.687500	2299.975098
1511.048828	2244.549072
1509.410156	2241.015137
1507.771484	2237.482422
1506.130859	2182.105225
1504.492188	2227.372070
1502.851563	2219.271240
1501.210938	2179.172119
1499.570313	2222.886230
1497.927734	2152.338379
1496.287109	2153.397461
1494.644531	2098.120361
1493.001953	2157.036133
1491.359375	2152.005371
1489.716797	2177.408691
1488.074219	2135.864746
1486.429688	2101.943359
1484.785156	2136.463867
1483.140625	2125.361084
1481.496094	2181.140869
1479.851563	2179.150391
1478.207031	2186.276367
1476.560547	2211.626953
1474.914063	2200.518555
1473.267578	2177.268555
1471.621094	2234.481689
1469.972656	2179.363037
1468.326172	2242.620117
1466.677734	2172.353027
1465.029297	2215.866943
1463.380859	2142.602783
1461.732422	2228.552734
1460.082031	2175.021240
1458.431641	2215.465576
1456.783203	2195.290527
1455.132813	2141.800293
1453.480469	2165.566650
1451.830078	2234.744385
1450.177734	2104.079834
1448.527344	2171.726807
1446.875000	2156.125488
1445.220703	2213.142578
1443.568359	2212.662842
1441.916016	2172.868652
1440.261719	2226.820801
1438.607422	2159.834961
1436.953125	2198.655029
1435.298828	2213.285645
1433.642578	2220.357422
1431.988281	2112.656982
1430.332031	2128.806152
1428.675781	2134.381592
1427.019531	2097.698730
1425.361328	2079.137207
1423.705078	2105.838135
1422.046875	2022.432129
1420.388672	2055.164551
1418.730469	2047.180298
1417.072266	2031.663330
1415.412109	1951.358887
1413.753906	2033.792480
1412.093750	2051.424072
1410.433594	2001.284302
1408.773438	2046.014526
1407.111328	2101.261475
1405.451172	1998.472412
1403.789063	2083.796143
1402.126953	2038.215698
1400.464844	2170.113770
1398.802734	2144.080322
1397.138672	2118.057861
1395.474609	2071.005859
1393.812500	2084.077148
1392.146484	2103.151855
1390.482422	2017.083252
1388.818359	1947.569702
1387.152344	1995.185059
1385.486328	2014.261597
1383.820313	2021.324829
1382.154297	2043.387573
1380.488281	1969.443237
1378.820313	2014.001709
1377.154297	2010.562866
1375.486328	2034.106812
1373.818359	2042.653931
1372.148438	2046.702026
1370.480469	2100.181885
1368.810547	2048.802002
1367.140625	2043.861450
1365.470703	2046.408081
1363.800781	2120.793945
1362.130859	2039.526489
1360.458984	2119.864990
1358.787109	2132.861816
1357.115234	2111.459229
1355.443359	2073.620361
1353.771484	2082.134033
1352.097656	2045.812134
1350.423828	2097.655273
1348.751953	2121.094727
1347.076172	2047.452637
1345.402344	2142.560059
1343.728516	2189.857422
1342.052734	2286.383789
1340.376953	2375.406982
1338.701172	2359.967529
1337.025391	2404.191895
1335.347656	2473.745361
1333.671875	2520.906494
1331.994141	2670.887695
1330.316406	2761.197754
1328.638672	2911.059814
1326.960938	2910.419189
1325.281250	2868.082764
1323.601563	2901.694092
1321.921875	2972.502441
1320.242188	2872.141357
1318.562500	2721.238037
1316.880859	2625.438232
1315.201172	2577.270264
1313.519531	2471.135986
1311.837891	2399.238525
1310.154297	2343.720215
1308.472656	2294.169922
1306.789063	2259.496338
1305.105469	2192.163574
1303.421875	2202.073730
1301.738281	2207.525879
1300.054688	2221.880615
1298.369141	2138.291748
1296.683594	2078.476563
1294.998047	2146.246338
1293.312500	2074.592041
1291.626953	2035.586304
1289.939453	2009.937744
1288.253906	1979.854736
1286.566406	1979.416626
1284.878906	2004.160278
1283.189453	1959.288330
1281.501953	1975.141357
1279.812500	1952.499634
1278.123047	2018.665283
1276.433594	1941.277222
1274.744141	1942.326294
1273.052734	1993.659912
1271.363281	1956.251709
1269.671875	1920.338257
1267.980469	1962.774048
1266.289063	1957.905640
1264.595703	1896.900391
1262.904297	1868.416138
1261.210938	1925.591919
1259.517578	1870.539185
1257.824219	1951.305054
1256.128906	1928.736084
1254.435547	1907.652344
1252.740234	1889.527832
1251.044922	1925.975586
1249.349609	1984.522705
1247.652344	1923.644897
1245.957031	1942.375366
1244.259766	1943.416504
1242.562500	2000.433838
1240.865234	1948.442383
1239.167969	1914.142822
1237.468750	1932.853638
1235.769531	1944.197144
1234.072266	1954.063843
1232.371094	2005.117065
1230.671875	1928.189575
1228.972656	1977.754761
1227.271484	1981.723999
1225.570313	1972.463135
1223.869141	2020.515259
1222.167969	1995.088989
1220.464844	1993.174683
1218.763672	1888.467407
1217.060547	1982.007324
1215.357422	1930.190674
1213.654297	1937.096802
1211.949219	1913.189087
1210.246094	1833.551880
1208.541016	1906.467407
1206.835938	1878.183472
1205.130859	1929.068237
1203.423828	1881.739624
1201.718750	1831.501465
1200.011719	1769.566772
1198.304688	1816.035889
1196.597656	1856.627197
1194.888672	1787.408325
1193.181641	1889.457031
1191.472656	1810.018921
1189.763672	1749.634033
1188.054688	1825.295532
1186.343750	1805.876831
1184.634766	1880.029541
1182.923828	1786.065796
1181.212891	1917.178589
1179.501953	1883.146606
1177.791016	1862.275146
1176.078125	1877.919800
1174.365234	1819.099731
1172.652344	1954.435913
1170.939453	2034.257813
1169.226563	2011.915894
1167.511719	1977.914673
1165.798828	1926.428833
1164.083984	1877.881836
1162.369141	1841.017822
1160.652344	1817.286133
1158.937500	1748.398071
1157.220703	1788.791016
1155.503906	1784.018921
1153.787109	1715.184326
1152.070313	1789.037720
1150.351563	1702.768311
1148.632813	1725.664795
1146.916016	1728.184937
1145.195313	1692.890137
1143.476563	1708.502563
1141.757813	1681.950073
1140.037109	1678.663574
1138.316406	1659.394653
1136.595703	1773.785645
1134.875000	1654.287842
1133.152344	1671.338867
1131.429688	1701.447754
1129.708984	1692.354614
1127.984375	1768.879761
1126.261719	1782.987305
1124.539063	1710.062134
1122.814453	1709.675171
1121.089844	1694.790405
1119.365234	1629.181396
1117.640625	1714.310669
1115.914063	1711.024780
1114.187500	1658.492310
1112.462891	1681.286743
1110.734375	1696.831543
1109.007813	1705.131592
1107.281250	1645.411743
1105.552734	1610.314697
1103.824219	1621.521362
1102.095703	1624.045654
1100.367188	1615.001953
1098.636719	1613.189819
1096.908203	1599.816895
1095.177734	1613.901978
1093.447266	1672.760864
1091.714844	1655.050293
1089.984375	1661.893433
1088.251953	1622.540039
1086.519531	1604.852417
1084.787109	1611.701782
1083.054688	1658.939453
1081.320313	1660.004150
1079.585938	1642.323486
1077.851563	1584.286743
1076.117188	1621.398315
1074.382813	1579.242432
1072.648438	1688.367188
1070.912109	1611.648804
1069.175781	1658.799072
1067.439453	1605.155640
1065.701172	1702.660156
1063.964844	1604.423462
1062.226563	1697.567505
1060.488281	1600.814819
1058.750000	1600.449463
1057.011719	1650.401123
1055.271484	1673.021118
1053.531250	1625.218750
1051.791016	1653.580444
1050.050781	1614.421875
1048.310547	1624.104858
1046.568359	1636.654541
1044.826172	1631.974243
1043.083984	1579.940796
1041.341797	1616.880859
1039.599609	1627.985718
1037.855469	1578.856323
1036.113281	1588.530762
1034.369141	1626.867798
1032.623047	1635.093384
1030.878906	1631.853394
1029.132813	1683.045166
1027.386719	1599.600464
1025.640625	1636.458496
1023.894531	1694.770386
1022.148438	1652.880859
1020.400391	1721.177002
1018.652344	1757.972778
1016.904297	1661.753906
1015.156250	1709.984009
1013.406250	1699.585449
1011.658203	1707.769653
1009.908203	1654.512939
1008.158203	1679.844727
1006.408203	1710.877075
1004.656250	1723.333862
1002.904297	1827.141846
1001.152344	1761.073853
999.400391	1764.949219
997.648438	1708.910767
995.896484	1647.193481
994.142578	1661.072510
992.388672	1616.500000
990.634766	1571.947876
988.878906	1582.984497
987.125000	1619.656860
985.369141	1647.767090
983.613281	1606.095825
981.857422	1592.913940
980.099609	1689.323364
978.343750	1620.636597
976.585938	1644.445679
974.828125	1676.776978
973.070313	1673.546265
971.310547	1597.817993
969.552734	1621.609863
967.792969	1629.760742
966.033203	1645.010498
964.273438	1587.821045
962.511719	1622.951782
960.750000	1673.681519
958.990234	1696.002563
957.226563	1638.853638
955.464844	1690.962524
953.703125	1751.556763
951.939453	1694.433960
950.175781	1577.797974
948.412109	1624.203003
946.648438	1569.982788
944.882813	1538.453613
943.117188	1574.920898
941.351563	1527.829102
939.585938	1527.475098
937.820313	1483.246460
936.052734	1457.432983
934.285156	1523.583862
932.517578	1487.872314
930.750000	1480.457153
928.982422	1531.005859
927.212891	1441.609985
925.443359	1535.947388
923.673828	1501.686401
921.904297	1473.090576
920.132813	1533.465698
918.361328	1526.051025
916.591797	1520.051025
914.818359	1491.476807
913.046875	1453.040771
911.275391	1487.962646
909.501953	1489.026733
907.728516	1540.840698
905.955078	1534.844604
904.179688	1489.396973
902.406250	1520.042847
900.630859	1456.310059
898.855469	1544.681030
897.080078	1530.243652
895.302734	1524.257568
893.525391	1488.724609
891.750000	1574.191650
889.970703	1510.534180
888.193359	1559.396606
886.416016	1553.409912
884.636719	1508.072510
882.857422	1488.048828
881.078125	1475.058350
879.296875	1515.444458
877.517578	1505.261597
875.736328	1461.391479
873.955078	1490.523926
872.173828	1490.175903
870.390625	1510.870605
868.609375	1493.687500
866.826172	1496.142822
865.042969	1487.382080
863.259766	1442.185181
861.474609	1509.106201
859.689453	1449.916260
857.904297	1483.190552
856.119141	1474.442261
854.333984	1483.896606
852.546875	1420.568604
850.761719	1476.206055
848.974609	1506.636719
847.185547	1497.892456
845.398438	1501.736450
843.609375	1480.415771
841.822266	1456.309570
840.031250	1517.448853
838.242188	1545.032349
836.453125	1540.480347
834.662109	1488.456177
832.871094	1516.026611
831.080078	1490.549438
829.289063	1474.851318
827.496094	1466.135498
825.703125	1456.028809
823.910156	1450.109741
822.117188	1529.227905
820.324219	1414.587036
818.529297	1447.695435
816.734375	1464.071777
814.939453	1490.189209
813.144531	1461.991699
811.347656	1447.727661
809.550781	1462.696411
807.755859	1472.092407
805.957031	1457.835693
804.160156	1436.631836
802.361328	1480.787109
800.564453	1444.296631
798.765625	1417.551514
796.964844	1424.165161
795.166016	1441.888306
793.365234	1434.605103
791.564453	1434.267456
789.763672	1411.719727
787.962891	1404.448364
786.160156	1405.505005
784.359375	1409.335449
