#Wave		#Intensity
2109.224609	903.066223
2107.712891	869.986877
2106.201172	917.753418
2104.687500	871.263916
2103.175781	864.464050
2101.662109	935.336365
2100.150391	890.525391
2098.636719	865.555725
2097.123047	891.792297
2095.607422	873.437561
2094.093750	886.455078
2092.578125	947.328552
2091.064453	897.622925
2089.548828	930.423096
2088.033203	917.027832
2086.517578	875.605774
2085.000000	891.903320
2083.484375	919.731628
2081.966797	919.533569
2080.449219	944.048828
2078.931641	889.488037
2077.414063	890.943420
2075.894531	912.156067
2074.376953	893.852356
2072.857422	887.076965
2071.337891	863.850159
2069.818359	889.985657
2068.298828	876.636597
2066.777344	860.004578
2065.257813	877.903931
2063.736328	892.508362
2062.214844	908.749756
2060.693359	893.768066
2059.171875	893.576233
2057.648438	916.375977
2056.126953	871.848083
2054.603516	920.907471
2053.080078	902.656799
2051.556641	897.540771
2050.033203	869.460022
2048.507813	923.398254
2046.984375	892.044373
2045.458984	896.771606
2043.933594	931.000305
2042.408203	922.607239
2040.882813	860.151123
2039.355469	948.420776
2037.830078	902.362671
2036.302734	880.884277
2034.775391	895.428650
2033.248047	896.873718
2031.718750	921.226135
2030.191406	906.305786
2028.662109	870.129272
2027.134766	896.106995
2025.605469	851.773682
2024.076172	925.145630
2022.544922	861.214844
2021.015625	844.692566
2019.484375	888.616333
2017.955078	860.663269
2016.423828	865.377869
2014.892578	863.560730
2013.359375	907.442932
2011.828125	861.560486
2010.294922	925.001160
2008.761719	906.862305
2007.230469	916.453125
2005.695313	912.997009
2004.162109	824.782166
2002.628906	865.347778
2001.093750	878.197815
1999.558594	878.010742
1998.023438	855.023071
1996.488281	859.725708
1994.953125	880.705627
1993.417969	891.911072
1991.880859	898.230103
1990.343750	885.023804
1988.806641	899.474304
1987.269531	892.778076
1985.732422	881.207214
1984.193359	894.023743
1982.656250	823.952026
1981.117188	848.148865
1979.578125	882.082153
1978.039063	906.256348
1976.500000	907.687439
1974.958984	891.260193
1973.417969	882.955383
1971.878906	898.995056
1970.337891	928.007080
1968.796875	913.211487
1967.253906	872.474976
1965.712891	860.940186
1964.169922	868.862366
1962.626953	881.643188
1961.083984	876.595032
1959.541016	845.629333
1957.998047	885.940735
1956.455078	853.366821
1954.910156	872.613098
1953.365234	844.911621
1951.820313	911.081055
1950.275391	885.001099
1948.730469	886.430969
1947.183594	878.156738
1945.638672	834.314514
1944.091797	853.536133
1942.544922	869.517212
1940.998047	864.485291
1939.449219	883.688232
1937.902344	846.351868
1936.353516	896.232300
1934.804688	852.451111
1933.255859	858.727051
1931.707031	850.476074
1930.158203	832.547791
1928.607422	835.597656
1927.058594	853.161194
1925.507813	861.042725
1923.957031	867.308716
1922.406250	863.901550
1920.853516	870.164307
1919.302734	865.146790
1917.750000	892.346130
1916.197266	851.897400
1914.644531	866.207520
1913.091797	846.707642
1911.539063	870.669006
1909.984375	873.702759
1908.431641	833.300659
1906.876953	866.899658
1905.322266	863.500244
1903.767578	863.317505
1902.210938	874.386169
1900.656250	856.524353
1899.099609	856.343140
1897.542969	880.256653
1895.986328	873.646606
1894.429688	863.828064
1892.873047	870.066528
1891.314453	852.228149
1889.755859	863.280212
1888.199219	882.348938
1886.640625	862.915161
1885.080078	841.886047
1883.521484	868.963379
1881.960938	849.544739
1880.402344	899.044983
1878.841797	882.832581
1877.281250	861.821289
1875.720703	858.436035
1874.158203	850.248535
1872.597656	843.665344
1871.035156	808.275024
1869.472656	828.906921
1867.910156	851.129944
1866.347656	858.947754
1864.783203	866.762268
1863.220703	917.742432
1861.656250	867.994568
1860.091797	872.605713
1858.527344	882.008423
1856.962891	848.274536
1855.396484	868.858521
1853.832031	881.449585
1852.265625	870.087952
1850.699219	857.134949
1849.132813	860.145508
1847.566406	903.041809
1845.998047	851.806519
1844.431641	846.842163
1842.863281	875.363770
1841.294922	840.107971
1839.726563	825.586426
1838.156250	868.435486
1836.587891	853.913940
1835.017578	847.362488
1833.449219	842.406189
1831.878906	839.044067
1830.306641	862.743530
1828.736328	881.658691
1827.166016	848.059265
1825.593750	863.787903
1824.021484	847.701172
1822.449219	863.423157
1820.876953	885.497498
1819.304688	878.952759
1817.730469	908.959900
1816.158203	918.300476
1814.583984	865.688721
1813.009766	852.801270
1811.435547	843.094666
1809.859375	858.790771
1808.285156	861.783630
1806.708984	829.866760
1805.132813	840.796387
1803.556641	889.787109
1801.980469	843.612793
1800.404297	837.093018
1798.826172	879.713074
1797.248047	873.188354
1795.671875	839.731567
1794.093750	839.554260
1792.513672	817.204712
1790.935547	847.116638
1789.355469	854.853027
1787.777344	884.744324
1786.197266	875.063049
1784.617188	876.460327
1783.035156	858.876221
1781.455078	825.485596
1779.873047	871.161865
1778.292969	883.623596
1776.710938	826.542969
1775.128906	872.189941
1773.544922	887.802917
1771.962891	846.551270
1770.378906	874.795410
1768.794922	860.402100
1767.212891	822.339050
1765.626953	872.662964
1764.042969	806.214355
1762.458984	850.210815
1760.873047	837.414734
1759.287109	868.772156
1757.701172	849.671875
1756.115234	896.773926
1754.529297	838.282776
1752.941406	858.585571
1751.355469	863.129272
1749.767578	896.015930
1748.179688	864.338806
1746.591797	831.100891
1745.001953	871.841980
1743.414063	873.231018
1741.824219	880.911682
1740.234375	888.589050
1738.644531	882.111572
1737.054688	872.492676
1735.462891	861.306030
1733.873047	861.123901
1732.281250	933.210571
1730.689453	893.744934
1729.097656	899.837463
1727.505859	899.647095
1725.912109	890.038391
1724.320313	908.682861
1722.726563	872.402039
1721.132813	861.236267
1719.539063	906.537720
1717.945313	879.688660
1716.349609	896.747620
1714.755859	857.372620
1713.160156	951.215698
1711.564453	885.211060
1709.968750	878.757996
1708.371094	922.422241
1706.775391	911.266663
1705.177734	881.330750
1703.580078	884.274231
1701.982422	926.335388
1700.384766	905.801636
1698.787109	918.122498
1697.187500	894.471619
1695.587891	889.591797
1693.990234	948.801086
1692.390625	909.530823
1690.789063	895.276123
1689.189453	920.080078
1687.587891	896.458435
1685.988281	927.497314
1684.386719	874.222839
1682.785156	908.374695
1681.181641	915.984375
1679.580078	926.710938
1677.976563	901.557800
1676.373047	907.604431
1674.769531	907.411926
1673.166016	930.601379
1671.562500	921.053101
1669.957031	880.346191
1668.353516	861.465759
1666.748047	967.191101
1665.142578	906.257263
1663.537109	960.553345
1661.929688	957.236450
1660.324219	961.701721
1658.716797	966.164978
1657.109375	959.737854
1655.501953	936.206604
1653.894531	945.336731
1652.285156	956.017456
1650.677734	918.514282
1649.068359	1014.657166
1647.458984	995.799438
1645.849609	947.439270
1644.240234	996.929077
1642.628906	1018.452454
1641.019531	970.118042
1639.408203	1022.674988
1637.796875	1017.802979
1636.185547	1056.366455
1634.572266	1018.920959
1632.960938	1057.467651
1631.347656	1027.788818
1629.734375	1061.667480
1628.121094	1098.630737
1626.507813	1089.101563
1624.894531	1073.380859
1623.279297	1119.609253
1621.664063	1117.822632
1620.048828	1143.898926
1618.433594	1137.465088
1616.818359	1141.864502
1615.203125	1203.497803
1613.585938	1226.440186
1611.968750	1244.733887
1610.351563	1252.198242
1608.734375	1272.024170
1607.117188	1313.475098
1605.498047	1280.751465
1603.878906	1268.121582
1602.261719	1253.952759
1600.640625	1245.965576
1599.021484	1245.699829
1597.402344	1213.025024
1595.781250	1240.539429
1594.162109	1203.251709
1592.541016	1198.367920
1590.919922	1225.867676
1589.296875	1171.648560
1587.675781	1260.794556
1586.052734	1218.918701
1584.429688	1178.601440
1582.806641	1156.785034
1581.183594	1202.737915
1579.560547	1134.735474
1577.935547	1168.358521
1576.312500	1135.789551
1574.687500	1138.624146
1573.062500	1190.684814
1571.435547	1204.272339
1569.810547	1174.798706
1568.183594	1136.113281
1566.558594	1174.296143
1564.931641	1203.242310
1563.304688	1172.257324
1561.675781	1188.902954
1560.048828	1162.541260
1558.419922	1143.867676
1556.791016	1192.744873
1555.162109	1112.683105
1553.533203	1161.545898
1551.904297	1161.296997
1550.273438	1131.906982
1548.642578	1139.331543
1547.011719	1178.947754
1545.380859	1163.367432
1543.750000	1156.988281
1542.119141	1139.887085
1540.486328	1159.555664
1538.853516	1154.712646
1537.220703	1099.344604
1535.587891	1119.009033
1533.955078	1106.525146
1532.320313	1139.950684
1530.685547	1101.460815
1529.052734	1085.929565
1527.416016	1085.696289
1525.781250	1056.415527
1524.146484	1085.229980
1522.509766	1104.862915
1520.873047	1034.345093
1519.236328	1018.847656
1517.599609	1027.791748
1515.962891	1009.248535
1514.324219	1048.721069
1512.687500	1021.024048
1511.048828	1040.640747
1509.410156	1034.314697
1507.771484	1073.747559
1506.130859	1043.018799
1504.492188	981.812195
1502.851563	1039.521362
1501.210938	982.913330
1499.570313	956.800964
1497.927734	979.443420
1496.287109	956.388733
1494.644531	965.318115
1493.001953	983.377136
1491.359375	951.204651
1489.716797	932.740356
1488.074219	944.709412
1486.429688	938.421875
1484.785156	968.631714
1483.140625	969.942993
1481.496094	981.893311
1479.851563	968.004700
1478.207031	1002.739685
1476.560547	987.333435
1474.914063	1029.642212
1473.267578	1008.163391
1471.621094	1004.909607
1469.972656	1006.210083
1468.326172	1019.648621
1466.677734	1005.775146
1465.029297	1008.591003
1463.380859	994.725769
1461.732422	1017.250916
1460.082031	1021.577942
1458.431641	977.411255
1456.783203	1013.560608
1455.132813	1037.576538
1453.480469	1023.722473
1451.830078	1006.846191
1450.177734	997.545715
1448.527344	983.709045
1446.875000	972.904358
1445.220703	998.410156
1443.568359	1002.730957
1441.916016	964.711365
1440.261719	987.178528
1438.607422	974.872986
1436.953125	995.816956
1435.298828	974.450012
1433.642578	972.728088
1431.988281	989.128235
1430.332031	946.639282
1428.675781	937.376953
1427.019531	962.828613
1425.361328	950.549011
1423.705078	947.325500
1422.046875	927.513611
1420.388672	957.468445
1418.730469	924.095337
1417.072266	935.951721
1415.412109	902.597656
1413.753906	962.661804
1412.093750	903.711060
1410.433594	920.078796
1408.773438	874.712646
1407.111328	918.173035
1405.451172	902.924316
1403.789063	955.386719
1402.126953	913.060425
1400.464844	855.713623
1398.802734	893.116150
1397.138672	953.050842
1395.474609	870.183105
1393.812500	868.490723
1392.146484	905.857544
1390.482422	889.138733
1388.818359	879.935120
1387.152344	908.267090
1385.486328	912.571594
1383.820313	907.870483
1382.154297	912.172974
1380.488281	938.972900
1378.820313	920.772156
1377.154297	881.589050
1375.486328	891.889160
1373.818359	939.650757
1372.148438	915.472168
1370.480469	894.300049
1368.810547	877.630066
1367.140625	940.325989
1365.470703	922.156067
1363.800781	909.980713
1362.130859	917.263184
1360.458984	933.518494
1358.787109	925.835510
1357.115234	943.577026
1355.443359	910.479309
1353.771484	913.269104
1352.097656	910.080017
1350.423828	869.540894
1348.751953	879.806213
1347.076172	925.908569
1345.402344	934.663757
1343.728516	925.502136
1342.052734	895.450562
1340.376953	972.842529
1338.701172	935.334778
1337.025391	935.129211
1335.347656	951.325867
1333.671875	1004.784729
1331.994141	985.187927
1330.316406	983.481140
1328.638672	962.407654
1326.960938	981.558960
1325.281250	933.690491
1323.601563	952.839478
1321.921875	979.422424
1320.242188	1043.197388
1318.562500	1037.016357
1316.880859	969.850281
1315.201172	1020.200439
1313.519531	1051.199341
1311.837891	970.695618
1310.154297	991.288147
1308.472656	949.465393
1306.789063	996.792969
1305.105469	941.620361
1303.421875	975.564758
1301.738281	944.173767
1300.054688	961.775940
1298.369141	912.594971
1296.683594	1011.792297
1294.998047	938.890015
1293.312500	937.199585
1291.626953	907.340698
1289.939453	950.125488
1288.253906	914.349060
1286.566406	954.149963
1284.878906	908.019348
1283.189453	875.237610
1281.501953	922.423584
1279.812500	880.771240
1278.123047	924.974915
1276.433594	887.779236
1274.744141	857.996399
1273.052734	884.427795
1271.363281	894.582214
1269.671875	884.035645
1267.980469	904.531433
1266.289063	873.299805
1264.595703	849.468628
1262.904297	881.774231
1261.210938	859.428284
1259.517578	897.622620
1257.824219	879.710938
1256.128906	836.720276
1254.435547	843.911133
1252.740234	862.899109
1251.044922	858.283142
1249.349609	863.989807
1247.652344	856.427368
1245.957031	856.236816
1244.259766	853.099487
1242.562500	827.867310
1240.865234	891.011047
1239.167969	836.333191
1237.468750	856.756165
1235.769531	856.565247
1234.072266	825.474304
1232.371094	850.299072
1230.671875	825.106262
1228.972656	836.685852
1227.271484	818.857788
1225.570313	862.768921
1223.869141	868.454224
1222.167969	830.062805
1220.464844	844.565552
1218.763672	809.133362
1217.060547	806.016357
1215.357422	829.321472
1213.654297	826.201111
1211.949219	853.892639
1210.246094	822.898071
1208.541016	843.245239
1206.835938	835.725647
1205.130859	825.277649
1203.423828	810.437683
1201.718750	839.560303
1200.011719	786.636902
1198.304688	768.886169
1196.597656	799.462463
1194.888672	819.777771
1193.181641	797.640686
1191.472656	817.947083
1189.763672	826.541138
1188.054688	846.831848
1186.343750	824.708130
1184.634766	812.827698
1182.923828	840.415527
1181.212891	854.839539
1179.501953	860.491333
1177.791016	826.704102
1176.078125	806.074463
1174.365234	792.753784
1172.652344	777.979370
1170.939453	805.531067
1169.226563	798.055115
1167.511719	774.537354
1165.798828	797.696106
1164.083984	806.264526
1162.369141	811.913635
1160.652344	810.273560
1158.937500	788.236084
1157.220703	789.515259
1155.503906	786.424683
1153.787109	783.335449
1152.070313	743.855408
1150.351563	794.625183
1148.632813	771.165527
1146.916016	786.993286
1145.195313	794.087646
1143.476563	795.362488
1141.757813	737.034302
1140.037109	757.215332
1138.316406	789.011658
1136.595703	737.987793
1134.875000	775.583557
1133.152344	769.600037
1131.429688	791.202271
1129.708984	776.509216
1127.984375	795.197754
1126.261719	825.483948
1124.539063	770.180664
1122.814453	759.855591
1121.089844	781.430298
1119.365234	781.253357
1117.640625	750.644897
1115.914063	737.435730
1114.187500	750.304810
1112.462891	783.441956
1110.734375	754.308167
1109.007813	736.767395
1107.281250	755.413330
1105.552734	729.199097
1103.824219	781.107544
1102.095703	753.453064
1100.367188	747.498718
1098.636719	763.229614
1096.908203	728.371887
1095.177734	768.662354
1093.447266	752.597900
1091.714844	729.319763
1089.984375	723.378479
1088.251953	746.310669
1086.519531	747.584167
1084.787109	707.013367
1083.054688	706.852478
1081.320313	760.054077
1079.585938	705.088867
1077.851563	742.409180
1076.117188	750.887573
1074.382813	783.857544
1072.648438	760.629578
1070.912109	701.405640
1069.175781	760.282898
1067.439453	722.679932
1065.701172	752.739868
1063.964844	723.789246
1062.226563	736.571655
1060.488281	752.224731
1058.750000	723.293884
1057.011719	736.067383
1055.271484	699.966736
1053.531250	750.100952
1051.791016	678.097290
1050.050781	708.104980
1048.310547	732.354980
1046.568359	725.009216
1044.826172	707.619446
1043.083984	721.807617
1041.341797	707.295715
1039.599609	740.123901
1037.855469	684.027710
1036.113281	711.111267
1034.369141	683.714478
1032.623047	759.508789
1030.878906	683.401306
1029.132813	677.515198
1027.386719	717.457336
1025.640625	700.112183
1023.894531	724.285339
1022.148438	712.670715
1020.400391	716.799438
1018.652344	740.951904
1016.904297	717.900574
1015.156250	696.289490
1013.406250	717.570984
1011.658203	734.555298
1009.908203	702.953674
1008.158203	735.646301
1006.408203	708.343140
1004.656250	698.185791
1002.904297	723.719482
1001.152344	703.573242
999.400391	703.411438
997.648438	728.926086
995.896484	728.758301
994.142578	724.313110
992.388672	712.742493
990.634766	723.979614
988.878906	720.963257
987.125000	690.882629
985.369141	727.751892
983.613281	710.498047
981.857422	727.416443
980.099609	717.286438
978.343750	732.772461
976.585938	721.223145
974.828125	712.523560
973.070313	686.765381
971.310547	706.508484
969.552734	736.190979
967.792969	717.549377
966.033203	713.122009
964.273438	758.404724
962.511719	677.294861
960.750000	760.893372
958.990234	722.397766
957.226563	708.041504
955.464844	727.738037
953.703125	724.733215
951.939453	713.221985
950.175781	721.562622
948.412109	715.726501
946.648438	698.557373
944.882813	702.645447
943.117188	703.898987
941.351563	686.744324
939.585938	702.157227
937.820313	693.502625
936.052734	690.511902
934.285156	698.839722
932.517578	690.191711
930.750000	708.413635
928.982422	698.353577
927.212891	691.124817
925.443359	676.834229
923.673828	675.264404
921.904297	696.293030
920.132813	682.010986
918.361328	704.439819
916.591797	663.346313
914.818359	698.468323
913.046875	695.484558
911.275391	678.398132
909.501953	664.139771
907.728516	693.589783
905.955078	746.985901
904.179688	687.630737
902.406250	676.200745
900.630859	663.367554
898.855469	682.926453
897.080078	705.291687
895.302734	754.387817
893.525391	709.184509
891.750000	697.765015
889.970703	704.634705
888.193359	686.190796
886.416016	695.871399
884.636719	728.035034
882.857422	723.649780
881.078125	667.288330
879.296875	678.368530
877.517578	695.060181
875.736328	685.071106
873.955078	675.086609
872.173828	659.494019
870.390625	663.548584
868.609375	683.028931
866.826172	673.053955
865.042969	677.102295
863.259766	679.747131
861.474609	686.594299
859.689453	640.204529
857.904297	659.662659
856.119141	663.709045
854.333984	662.153870
852.546875	652.201904
850.761719	643.653809
848.974609	681.273987
847.185547	671.324341
845.398438	666.972351
843.609375	659.826477
841.822266	709.985840
840.031250	679.079285
838.242188	687.301880
836.453125	694.123962
834.662109	677.205627
832.871094	633.771729
831.080078	669.909851
829.289063	682.310608
827.496094	645.880798
825.703125	631.782593
823.910156	667.887085
822.117188	645.426208
820.324219	667.573608
818.529297	647.909912
816.734375	631.041382
814.939453	622.536987
813.144531	627.960266
811.347656	645.909302
809.550781	627.665161
807.755859	669.259399
805.957031	648.236084
804.160156	607.752258
802.361328	650.712097
800.564453	670.020203
798.765625	654.575256
796.964844	622.464355
795.166016	640.376221
793.365234	605.506104
791.564453	634.520996
789.763672	653.805298
787.962891	642.549011
786.160156	643.785156
784.359375	657.504883
782.556641	615.745544
780.751953	640.557251
778.949219	609.910767
777.144531	665.200317
775.339844	648.417419
773.535156	610.864685
771.730469	635.647949
769.925781	634.113525
768.119141	620.121948
766.312500	622.743347
764.505859	654.417969
762.697266	622.449463
760.890625	633.365662
759.082031	634.598694
757.273438	609.568542
755.464844	643.972473
753.654297	631.386047
751.845703	651.955811
750.035156	631.087708
748.224609	622.654968
746.412109	623.888062
744.601563	667.899231
742.789063	636.009827
740.976563	648.273132
739.164063	677.078369
737.349609	660.374451
735.537109	660.218201
733.722656	693.133972
731.908203	691.592285
730.091797	690.051270
