#Wave		#Intensity
1585.210938	24322.076172
1584.209961	24224.667969
1583.208984	23924.986328
1582.208008	24169.691406
1581.206055	24184.652344
1580.204102	24072.332031
1579.202148	24361.763672
1578.200195	24204.548828
1577.198242	24177.087891
1576.195313	24219.457031
1575.192383	24251.835938
1574.189453	23850.507813
1573.186523	24149.587891
1572.182617	24005.064453
1571.178711	23875.546875
1570.174805	23975.199219
1569.170898	24092.238281
1568.166992	23985.183594
1567.162109	23661.642578
1566.158203	23636.835938
1565.153320	23711.550781
1564.147461	23801.160156
1563.142578	23540.089844
1562.136719	23560.078125
1561.130859	23587.513672
1560.125000	23821.214844
1559.119141	24126.875000
1558.113281	24169.080078
1557.106445	24293.228516
1556.099609	24466.990234
1555.092773	24844.257813
1554.084961	24881.310547
1553.078125	25171.476563
1552.070313	25595.501953
1551.062500	25726.638672
1550.054688	25984.203125
1549.045898	26251.580078
1548.038086	26781.628906
1547.029297	27331.285156
1546.020508	27399.968750
1545.011719	28003.773438
1544.001953	28560.263672
1542.992188	29096.710938
1541.982422	29558.652344
1540.972656	29973.369141
1539.962891	30506.710938
1538.952148	30928.478516
1537.942383	31092.779297
1536.931641	30905.779297
1535.919922	30938.947266
1534.909180	30695.189453
1533.897461	30421.867188
1532.886719	30437.810547
1531.874023	30006.515625
1530.862305	29471.640625
1529.850586	29060.480469
1528.837891	28382.798828
1527.825195	27722.677734
1526.812500	27492.318359
1525.799805	26951.107422
1524.786133	26545.822266
1523.772461	26002.562500
1522.758789	25397.871094
1521.745117	24815.619141
1520.731445	25064.402344
1519.716797	24960.621094
1518.702148	24773.099609
1517.687500	24427.972656
1516.672852	24413.060547
1515.657227	24516.365234
1514.642578	24767.357422
1513.626953	24486.517578
1512.610352	24547.898438
1511.594727	24564.960938
1510.579102	24441.785156
1509.562500	24244.869141
1508.545898	24148.859375
1507.529297	24433.976563
1506.511719	24409.250000
1505.494141	24269.025391
1504.477539	24416.339844
1503.458984	24386.714844
1502.441406	24303.068359
1501.423828	24467.468750
1500.405273	24432.939453
1499.386719	24575.152344
1498.368164	24363.919922
1497.348633	24376.046875
1496.330078	24420.056641
1495.310547	24586.673828
1494.291016	24405.033203
1493.271484	24316.625000
1492.250977	24519.921875
1491.231445	24595.707031
1490.210938	24718.009766
1489.190430	24546.322266
1488.168945	24484.908203
1487.148438	24829.964844
1486.126953	24675.492188
1485.105469	24440.316406
1484.083984	25007.835938
1483.061523	25127.421875
1482.040039	25100.199219
1481.017578	25337.091797
1479.995117	25862.386719
1478.971680	25913.246094
1477.949219	26159.595703
1476.925781	26593.984375
1475.902344	26915.818359
1474.878906	27068.990234
1473.855469	27681.173828
1472.831055	28109.998047
1471.806641	28572.814453
1470.782227	28881.695313
1469.757813	29568.623047
1468.733398	30096.707031
1467.708008	30451.412109
1466.682617	31447.251953
1465.657227	31799.089844
1464.631836	32316.515625
1463.605469	33182.191406
1462.579102	34040.199219
1461.552734	34868.617188
1460.526367	36193.492188
1459.500000	36595.027344
1458.472656	37232.519531
1457.445313	37898.953125
1456.417969	38187.945313
1455.390625	38892.820313
1454.362305	38831.238281
1453.334961	38040.144531
1452.306641	37769.671875
1451.277344	37299.984375
1450.249023	36854.792969
1449.219727	35911.683594
1448.191406	34633.734375
1447.162109	33735.191406
1446.131836	32803.027344
1445.102539	31825.121094
1444.072266	31211.703125
1443.041992	30833.929688
1442.011719	30034.150391
1440.981445	29106.138672
1439.950195	28932.750000
1438.918945	28456.345703
1437.887695	27997.105469
1436.856445	27751.339844
1435.825195	27180.966797
1434.792969	27206.812500
1433.760742	27147.867188
1432.728516	26481.103516
1431.696289	26712.873047
1430.663086	26542.712891
1429.629883	26183.847656
1428.596680	25832.388672
1427.563477	25819.759766
1426.530273	25753.921875
1425.496094	25267.351563
1424.461914	25286.271484
1423.427734	24990.951172
1422.393555	24809.335938
1421.358398	24690.615234
1420.323242	24414.923828
1419.288086	24433.994141
1418.252930	24564.128906
1417.217773	24344.156250
1416.181641	24401.843750
1415.145508	24416.068359
1414.109375	24464.062500
1413.073242	24678.470703
1412.036133	24658.861328
1411.000000	24952.705078
1409.962891	24942.687500
1408.924805	25573.761719
1407.887695	25951.564453
1406.849609	26249.705078
1405.812500	26663.333984
1404.773438	27257.398438
1403.735352	27718.792969
1402.697266	28182.402344
1401.658203	28722.826172
1400.619141	28930.982422
1399.580078	29538.378906
1398.540039	29515.384766
1397.500977	29836.255859
1396.460938	29709.828125
1395.420898	29364.724609
1394.380859	29473.949219
1393.339844	28895.984375
1392.298828	28916.378906
1391.257813	28636.564453
1390.216797	28488.923828
1389.175781	28840.666016
1388.133789	28599.439453
1387.091797	28574.273438
1386.049805	28760.234375
1385.007813	28641.496094
1383.964844	29069.570313
1382.922852	29653.304688
1381.879883	29788.541016
1380.835938	30419.810547
1379.792969	30593.162109
1378.749023	31039.535156
1377.706055	31442.609375
1376.661133	31153.478516
1375.617188	31917.863281
1374.573242	31980.605469
1373.528320	32285.021484
1372.483398	32338.087891
1371.438477	31848.126953
1370.392578	31922.781250
1369.347656	32057.179688
1368.301758	32021.789063
1367.255859	31921.878906
1366.208984	32166.107422
1365.163086	31980.197266
1364.116211	32305.519531
1363.069336	31737.560547
1362.022461	31974.451172
1360.974609	31786.341797
1359.927734	32307.123047
1358.879883	32154.808594
1357.832031	32386.634766
1356.783203	32470.486328
1355.735352	32597.222656
1354.686523	33138.734375
1353.637695	33439.273438
1352.588867	33963.695313
1351.539063	34642.765625
1350.490234	35438.269531
1349.440430	36140.554688
1348.390625	37261.613281
1347.339844	37670.406250
1346.290039	38933.476563
1345.239258	39908.082031
1344.188477	40273.230469
1343.137695	41556.359375
1342.085938	42346.683594
1341.034180	43293.593750
1339.982422	44114.113281
1338.930664	45414.363281
1337.878906	45314.539063
1336.826172	46203.007813
1335.773438	46466.445313
1334.720703	46575.421875
1333.667969	46898.015625
1332.614258	46714.894531
1331.561523	46147.406250
1330.507813	46071.277344
1329.453125	45769.832031
1328.399414	45181.542969
1327.344727	44657.519531
1326.290039	44354.175781
1325.235352	43818.691406
1324.180664	43183.898438
1323.125000	42743.640625
1322.070313	42827.031250
1321.014648	42344.402344
1319.958008	41933.000000
1318.902344	42149.054688
1317.845703	41122.539063
1316.789063	40569.675781
1315.732422	40203.929688
1314.675781	39620.738281
1313.618164	38820.246094
1312.560547	37925.523438
1311.502930	36790.082031
1310.445313	35671.656250
1309.386719	34792.328125
1308.329102	33639.355469
1307.270508	32978.093750
1306.210938	32236.826172
1305.152344	31564.328125
1304.092773	30797.705078
1303.033203	30043.201172
1301.973633	29501.337891
1300.914063	29558.802734
1299.853516	28639.958984
1298.792969	28584.408203
1297.732422	28099.873047
1296.671875	27719.232422
1295.611328	27612.068359
1294.549805	27278.802734
1293.488281	27534.470703
1292.426758	27015.337891
1291.364258	27183.843750
1290.302734	26796.806641
1289.240234	26699.373047
1288.177734	26731.376953
1287.114258	26584.599609
1286.051758	26630.720703
1284.988281	26411.132813
1283.924805	26252.755859
1282.861328	26458.726563
1281.796875	26446.083984
1280.732422	26351.222656
1279.667969	26305.722656
1278.603516	26497.412109
1277.539063	26719.537109
1276.473633	26835.941406
1275.408203	26874.851563
1274.342773	27284.449219
1273.277344	27306.824219
1272.210938	27172.054688
1271.145508	27389.054688
1270.079102	27202.748047
1269.011719	26901.673828
1267.945313	26870.199219
1266.877930	26578.689453
1265.810547	26720.623047
1264.743164	26403.503906
1263.674805	26025.646484
1262.607422	25980.335938
1261.539063	25689.312500
1260.470703	25309.500000
1259.401367	24869.025391
1258.333008	24936.253906
1257.263672	24699.472656
1256.194336	24231.345703
1255.125000	24181.794922
1254.054688	23835.488281
1252.985352	23837.439453
1251.915039	23652.519531
1250.843750	23794.623047
1249.773438	23565.427734
1248.702148	23322.320313
1247.630859	23441.058594
1246.559570	23158.412109
1245.488281	23106.833984
1244.416016	22920.000000
1243.343750	23138.986328
1242.271484	22793.687500
1241.199219	22569.740234
1240.125977	22707.093750
1239.053711	22863.025391
1237.980469	22583.294922
1236.906250	22816.035156
1235.833008	22524.789063
1234.758789	22489.732422
1233.684570	22594.332031
1232.610352	22561.599609
1231.536133	22705.685547
1230.460938	22428.718750
1229.385742	22707.640625
1228.310547	22426.138672
1227.235352	22737.480469
1226.159180	22246.935547
1225.083008	22734.759766
1224.006836	22739.205078
1222.930664	22446.375000
1221.853516	22562.330078
1220.777344	22255.728516
1219.700195	22917.093750
1218.622070	22791.541016
1217.544922	22795.957031
1216.466797	23143.650391
1215.388672	23041.314453
1214.310547	23256.650391
1213.232422	23128.830078
1212.153320	23320.876953
1211.074219	23517.474609
1209.995117	23542.564453
1208.916016	24056.318359
1207.835938	24018.759766
1206.755859	23816.849609
1205.675781	23818.701172
1204.595703	23723.361328
1203.514648	23729.855469
1202.434570	23507.355469
1201.353516	23402.886719
1200.271484	23448.744141
1199.190430	23480.710938
1198.108398	23124.404297
1197.026367	23114.833984
1195.944336	22982.830078
1194.862305	22973.289063
1193.779297	22769.789063
1192.696289	22402.462891
1191.613281	22259.177734
1190.530273	22109.029297
1189.446289	21926.644531
1188.362305	21901.185547
1187.278320	21557.490234
1186.194336	21324.611328
1185.109375	21082.611328
1184.024414	21110.353516
1182.939453	20914.582031
1181.854492	20836.376953
1180.768555	20495.646484
1179.683594	20309.335938
1178.597656	20841.376953
1177.510742	20457.128906
1176.424805	20588.503906
1175.337891	20531.164063
1174.250977	20374.941406
1173.164063	20234.882813
1172.077148	20170.753906
1170.989258	20159.521484
1169.901367	20139.099609
1168.813477	19921.082031
1167.724609	20020.171875
1166.636719	20155.964844
1165.547852	20328.437500
1164.458984	20317.175781
1163.369141	20260.011719
1162.280273	20643.460938
1161.190430	20694.078125
1160.100586	20717.146484
1159.010742	20905.318359
1157.919922	20724.271484
1156.829102	20930.695313
1155.738281	20749.716797
1154.647461	20981.246094
1153.555664	20960.687500
1152.464844	20983.650391
1151.373047	20729.537109
1150.280273	20960.865234
1149.188477	20896.833984
1148.095703	20951.820313
1147.002930	20848.921875
1145.910156	20590.529297
1144.817383	20766.744141
1143.723633	20419.308594
1142.629883	20552.048828
1141.536133	20447.054688
1140.441406	20168.453125
1139.347656	20280.597656
1138.252930	20152.884766
1137.158203	20201.046875
1136.062500	20055.140625
1134.967773	19726.703125
1133.872070	19866.197266
1132.776367	20058.099609
1131.679688	19964.804688
1130.583984	20117.832031
1129.487305	20054.201172
1128.390625	20284.640625
1127.292969	20029.564453
1126.196289	20262.185547
1125.098633	20260.074219
1124.000977	19925.455078
1122.903320	20139.724609
1121.804688	20285.607422
1120.706055	20251.623047
1119.607422	20197.171875
1118.508789	20160.943359
1117.409180	20181.589844
1116.310547	20470.558594
1115.210938	20231.945313
1114.110352	20141.181641
1113.010742	19809.566406
1111.910156	20084.726563
1110.809570	20073.550781
1109.708984	19783.041016
1108.607422	19967.199219
1107.506836	19958.320313
1106.405273	19613.550781
1105.303711	19473.144531
1104.201172	19348.677734
1103.098633	19237.871094
1101.996094	19226.884766
1100.893555	19195.498047
1099.791016	19102.925781
1098.687500	19048.916016
1097.583984	19216.957031
1096.480469	19172.003906
1095.376953	19459.966797
1094.272461	19195.355469
1093.167969	19374.529297
1092.063477	19241.310547
1090.958008	19153.400391
1089.853516	19339.250000
1088.748047	19226.474609
1087.642578	19457.447266
1086.536133	19634.060547
1085.430664	20065.996094
1084.324219	20233.357422
1083.217773	20491.013672
1082.110352	20624.324219
1081.003906	20685.312500
1079.896484	20981.076172
1078.789063	21129.988281
1077.680664	21725.669922
1076.573242	21556.218750
1075.464844	21515.419922
1074.356445	21447.572266
1073.247070	21654.833984
1072.138672	21774.087891
1071.029297	21404.214844
1069.919922	21629.373047
1068.809570	21367.824219
1067.700195	21182.966797
1066.589844	20556.832031
1065.479492	20698.671875
1064.368164	20408.287109
1063.257813	20462.330078
1062.146484	20320.609375
1061.035156	20052.986328
1059.922852	19859.691406
1058.811523	19675.472656
1057.699219	19545.281250
1056.586914	19280.302734
1055.473633	19100.820313
1054.361328	19181.998047
1053.248047	19031.808594
1052.134766	18895.156250
1051.021484	19153.667969
1049.907227	19102.333984
1048.792969	18914.142578
1047.678711	19203.882813
1046.564453	18874.441406
1045.449219	19058.664063
1044.333984	18928.929688
1043.218750	19000.984375
1042.103516	19041.630859
1040.987305	18929.904297
1039.871094	19241.585938
1038.754883	18993.251953
1037.638672	19121.179688
1036.521484	19280.388672
1035.404297	19273.910156
1034.287109	19245.058594
1033.169922	19502.560547
1032.051758	19397.626953
1030.933594	19719.822266
1029.815430	19299.667969
1028.697266	19454.109375
1027.578125	19608.482422
1026.458984	19555.015625
1025.339844	19832.142578
1024.220703	19512.906250
1023.100586	19691.681641
1021.980469	19772.164063
1020.860352	19685.236328
1019.740234	20002.181641
1018.619141	19948.697266
1017.498047	20118.250000
1016.376953	19623.287109
1015.255859	19839.646484
1014.133789	19663.660156
1013.011719	19743.992188
1011.889648	19877.751953
1010.767578	19811.001953
1009.644531	19855.615234
1008.521484	19869.041016
1007.398438	19773.398438
1006.274414	19806.859375
1005.151367	19815.830078
1004.027344	19987.167969
1002.902344	20042.791016
1001.778320	19820.480469
1000.653320	20120.619141
999.528320	19796.158203
998.403320	19816.218750
997.278320	19807.392578
996.152344	19660.876953
995.026367	19632.103516
993.900391	19623.318359
992.773438	19672.238281
991.646484	19909.736328
990.519531	19892.015625
989.392578	20045.078125
988.265625	20235.765625
987.137695	20231.281250
986.009766	20018.457031
984.881836	20244.472656
983.752930	20403.923828
982.624023	20370.605469
981.495117	20541.027344
980.366211	20129.105469
979.236328	20281.794922
978.106445	20290.572266
976.976563	19790.476563
975.846680	19830.322266
974.715820	19916.589844
973.585938	19551.775391
972.454102	19753.009766
971.323242	19609.390625
970.191406	19216.158203
969.060547	19518.941406
967.927734	19560.982422
966.795898	19589.753906
965.663086	19625.134766
964.530273	19878.996094
963.397461	20132.742188
962.264648	20231.949219
961.130859	20470.062500
959.997070	20818.322266
958.863281	21076.035156
957.729492	20731.910156
956.594727	20914.601563
955.459961	20984.849609
954.325195	20729.074219
953.189453	20413.951172
952.053711	20107.775391
950.917969	20028.453125
949.782227	19847.935547
948.646484	19399.072266
947.509766	19308.957031
946.373047	19249.669922
945.235352	19166.222656
944.098633	18999.277344
942.960938	18775.263672
941.823242	18742.509766
940.685547	18977.771484
939.546875	18712.179688
938.408203	18896.837891
937.269531	18793.830078
936.129883	19105.681641
934.991211	19061.914063
933.851563	19371.371094
932.711914	19340.720703
931.571289	19281.576172
930.431641	19419.767578
929.291016	19417.617188
928.149414	19560.095703
927.008789	19665.263672
925.867188	19634.580078
924.725586	19827.275391
923.583984	19704.611328
922.441406	19310.574219
921.299805	19540.410156
920.157227	19067.818359
919.013672	19135.732422
917.871094	19048.341797
916.727539	18893.208984
915.583984	18611.357422
914.439453	18377.710938
913.295898	18517.800781
912.151367	18185.972656
911.006836	18494.208984
909.861328	18463.859375
908.716797	18387.677734
907.571289	18160.931641
906.424805	18211.408203
905.279297	18233.500000
904.132813	17860.806641
902.986328	18299.455078
901.839844	18086.056641
900.692383	18088.533203
899.545898	17962.441406
898.398438	17871.259766
897.250000	18148.224609
896.102539	17847.986328
894.954102	18081.285156
893.805664	18281.826172
892.656250	18079.683594
891.507813	18151.767578
890.358398	17958.441406
889.208984	18076.185547
888.058594	18041.679688
886.908203	18296.292969
885.758789	17774.943359
884.607422	18033.845703
883.457031	18027.613281
882.305664	18097.394531
881.154297	18058.578125
880.002930	17661.595703
878.850586	17755.281250
877.698242	17777.318359
876.545898	17979.398438
875.393555	18055.593750
874.240234	17498.593750
873.086914	17468.632813
871.933594	17746.453125
870.780273	17720.781250
869.625977	17547.804688
868.471680	17597.992188
867.317383	17422.953125
866.162109	17609.535156
865.007813	17518.982422
863.852539	17590.765625
862.696289	17643.044922
861.541016	17565.519531
860.384766	17570.201172
859.228516	17252.742188
858.072266	17428.250000
856.915039	17519.396484
855.757813	17387.964844
854.600586	17327.873047
853.442383	17375.785156
852.285156	17602.875000
851.126953	17588.101563
849.968750	17802.089844
848.809570	17729.019531
847.650391	17608.525391
846.491211	17578.660156
845.332031	17494.904297
844.171875	17529.746094
843.012695	17523.621094
841.851563	17717.882813
840.691406	17823.734375
839.530273	17634.478516
838.369141	17292.429688
837.208008	17751.347656
836.046875	17764.542969
834.884766	17601.287109
833.722656	17661.835938
832.560547	17707.298828
831.397461	17907.560547
830.234375	17555.232422
829.071289	17639.371094
827.908203	17721.324219
826.744141	17670.039063
825.580078	17575.820313
824.416016	17762.945313
823.251953	17653.716797
822.086914	17744.150391
820.921875	17780.892578
819.756836	17545.150391
818.590820	17854.324219
817.425781	17665.847656
816.259766	17901.957031
815.092773	17747.845703
813.926758	17448.082031
812.759766	17714.070313
811.592773	17669.345703
810.424805	17830.224609
809.257813	17278.068359
808.089844	17623.046875
806.920898	17586.937500
805.752930	17580.796875
804.583984	17501.927734
803.415039	17568.519531
802.246094	17626.525391
801.076172	17646.027344
799.906250	17674.068359
798.736328	17415.783203
797.566406	17629.705078
796.395508	17401.443359
795.224609	17662.244141
794.053711	17931.460938
792.881836	17878.289063
791.710938	18258.285156
790.538086	18608.242188
789.366211	18845.001953
788.194336	19083.783203
787.021484	19188.152344
785.848633	19166.726563
784.674805	19096.300781
783.500977	18940.691406
782.327148	18744.685547
781.153320	18804.289063
779.979492	18523.246094
778.804688	18357.261719
777.629883	18436.060547
776.454102	18255.277344
775.279297	18155.396484
774.103516	18236.308594
772.927734	18127.972656
771.750977	18419.271484
770.575195	18293.939453
769.398438	18548.949219
768.220703	18765.607422
767.043945	18585.066406
765.866211	18686.970703
764.688477	18984.101563
763.510742	19134.671875
762.332031	19493.087891
761.153320	19944.666016
759.974609	20364.226563
758.794922	20912.921875
757.616211	21817.462891
756.436523	22412.193359
755.255859	24205.816406
754.076172	25238.187500
752.895508	27206.109375
751.714844	30515.443359
750.533203	32798.761719
749.352539	36221.687500
748.170898	39412.425781
746.988281	42438.824219
745.806641	45125.464844
744.624023	46210.339844
743.441406	47480.730469
742.258789	47998.187500
741.075195	48405.531250
