#Wave		#Intensity
2109.224609	6113.063965
2107.712891	6122.987793
2106.201172	6060.479980
2104.687500	6121.993164
2103.175781	6090.917480
2101.662109	5911.127441
2100.150391	6132.894531
2098.636719	6014.290527
2097.123047	6006.386230
2095.607422	6094.249512
2094.093750	5982.333496
2092.578125	6083.367676
2091.064453	6039.154297
2089.548828	5952.068359
2088.033203	5911.201172
2086.517578	6012.163086
2085.000000	5961.409180
2083.484375	5958.476563
2081.966797	5957.193359
2080.449219	5983.918945
2078.931641	5948.039063
2077.414063	5951.699707
2075.894531	5968.530273
2074.376953	5896.462402
2072.857422	5901.777344
2071.337891	5742.546875
2069.818359	5874.563477
2068.298828	5861.787598
2066.777344	6013.454590
2065.257813	5813.236816
2063.736328	6002.652832
2062.214844	5846.892578
2060.693359	5812.778320
2059.171875	5865.736328
2057.648438	5857.908691
2056.126953	5838.590820
2054.603516	5784.809082
2053.080078	5721.203125
2051.556641	5843.039551
2050.033203	5740.076660
2048.507813	5740.486328
2046.984375	5757.293945
2045.458984	5741.305664
2043.933594	5804.000000
2042.408203	5727.375488
2040.882813	5763.832031
2039.355469	5687.248535
2037.830078	5802.306641
2036.302734	5683.177246
2034.775391	5727.796875
2033.248047	5734.754883
2031.718750	5712.256836
2030.191406	5758.477051
2028.662109	5719.627930
2027.134766	5760.921387
2025.605469	5826.720215
2024.076172	5768.266602
2022.544922	5634.665527
2021.015625	5742.929199
2019.484375	5702.499023
2017.955078	5696.382324
2016.423828	5624.956055
2014.892578	5620.490723
2013.359375	5630.716309
2011.828125	5619.724121
2010.294922	5631.576660
2008.761719	5803.266602
2007.230469	5736.800781
2005.695313	5670.363770
2004.162109	5695.234863
2002.628906	5659.798340
2001.093750	5669.997070
1999.558594	5562.906738
1998.023438	5690.381836
1996.488281	5671.258789
1994.953125	5536.561523
1993.417969	5659.078125
1991.880859	5781.542480
1990.343750	5682.698730
1988.806641	5655.464844
1987.269531	5699.794434
1985.732422	5552.255859
1984.193359	5552.700195
1982.656250	5587.271973
1981.117188	5612.080566
1979.578125	5601.140625
1978.039063	5573.963379
1976.500000	5582.520996
1974.958984	5558.606445
1973.417969	5620.725098
1971.878906	5684.439941
1970.337891	5533.972168
1968.796875	5493.867188
1967.253906	5520.269043
1965.712891	5530.446289
1964.169922	5516.303711
1962.626953	5615.613281
1961.083984	5594.977051
1959.541016	5541.950195
1957.998047	5571.546875
1956.455078	5594.653320
1954.910156	5450.998535
1953.365234	5624.651367
1951.820313	5524.743652
1950.275391	5570.491211
1948.730469	5566.074707
1947.183594	5490.501465
1945.638672	5578.265625
1944.091797	5512.420898
1942.544922	5483.776855
1940.998047	5521.394531
1939.449219	5483.067383
1937.902344	5426.989258
1936.353516	5490.432129
1934.804688	5424.688965
1933.255859	5355.745117
1931.707031	5317.492676
1930.158203	5293.777344
1928.607422	5500.749023
1927.058594	5343.144043
1925.507813	5342.012207
1923.957031	5323.147949
1922.406250	5500.925293
1920.853516	5419.189941
1919.302734	5293.989746
1917.750000	5339.580078
1916.197266	5306.241699
1914.644531	5401.721680
1913.091797	5444.040527
1911.539063	5389.778809
1909.984375	5319.450195
1908.431641	5437.367188
1906.876953	5405.658203
1905.322266	5476.874512
1903.767578	5335.849121
1902.210938	5382.939941
1900.656250	5399.478027
1899.099609	5403.155762
1897.542969	5446.989746
1895.986328	5312.541992
1894.429688	5465.559082
1892.873047	5323.137695
1891.314453	5251.394531
1889.755859	5255.097656
1888.199219	5350.243164
1886.640625	5416.477051
1885.080078	5296.666016
1883.521484	5350.056641
1881.960938	5387.395996
1880.402344	5402.282715
1878.841797	5306.608887
1877.281250	5316.700684
1875.720703	5376.436035
1874.158203	5332.066895
1872.597656	5244.492676
1871.035156	5368.226563
1869.472656	5327.087402
1867.910156	5295.563965
1866.347656	5342.431152
1864.783203	5354.095703
1863.220703	5311.394531
1861.656250	5359.826172
1860.091797	5253.214355
1858.527344	5288.854980
1856.962891	5359.625488
1855.396484	5350.507324
1853.832031	5434.008789
1852.265625	5223.720703
1850.699219	5390.213379
1849.132813	5307.688477
1847.566406	5373.577637
1845.998047	5294.280762
1844.431641	5307.515625
1842.863281	5309.583496
1841.294922	5321.215332
1839.726563	5363.124023
1838.156250	5295.066406
1836.587891	5255.712891
1835.017578	5354.948730
1833.449219	5224.829590
1831.878906	5370.200684
1830.306641	5424.778809
1828.736328	5390.212891
1827.166016	5312.701660
1825.593750	5410.207520
1824.021484	5308.867676
1822.449219	5353.859375
1820.876953	5284.369141
1819.304688	5354.777344
1817.730469	5533.213867
1816.158203	5381.113770
1814.583984	5332.324707
1813.009766	5426.483887
1811.435547	5331.661133
1809.859375	5255.926758
1808.285156	5264.339355
1806.708984	5304.482910
1805.132813	5408.065918
1803.556641	5438.645020
1801.980469	5362.966797
1800.404297	5485.496094
1798.826172	5298.884277
1797.248047	5337.383789
1795.671875	5423.398438
1794.093750	5289.191895
1792.513672	5430.610352
1790.935547	5321.792480
1789.355469	5409.319824
1787.777344	5344.868652
1786.197266	5460.836426
1784.617188	5393.236816
1783.035156	5371.535156
1781.455078	5436.818848
1779.873047	5389.819824
1778.292969	5355.486328
1776.710938	5392.284180
1775.128906	5449.606934
1773.544922	5421.600586
1771.962891	5292.524902
1770.378906	5401.940430
1768.794922	5348.701660
1767.212891	5358.620117
1765.626953	5354.331543
1764.042969	5380.021484
1762.458984	5407.277832
1760.873047	5466.062988
1759.287109	5376.611816
1757.701172	5438.530762
1756.115234	5446.837402
1754.529297	5412.596191
1752.941406	5428.781738
1751.355469	5405.583496
1749.767578	5495.774414
1748.179688	5554.439453
1746.591797	5557.987305
1745.001953	5611.892578
1743.414063	5558.784180
1741.824219	5534.013184
1740.234375	5545.424805
1738.644531	5703.063477
1737.054688	5646.835449
1735.462891	5639.354004
1733.873047	5638.161621
1732.281250	5621.258301
1730.689453	5770.859375
1729.097656	5667.562988
1727.505859	5873.612305
1725.912109	5764.058105
1724.320313	5798.934570
1722.726563	5978.150879
1721.132813	6089.834473
1719.539063	6118.345703
1717.945313	6228.383789
1716.349609	6459.091309
1714.755859	6597.223633
1713.160156	6530.009766
1711.564453	6801.241211
1709.968750	6884.387207
1708.371094	7122.540527
1706.775391	7100.677246
1705.177734	7160.225098
1703.580078	7379.386230
1701.982422	7521.780762
1700.384766	7548.347168
1698.787109	7578.029785
1697.187500	7898.559570
1695.587891	7890.632324
1693.990234	7827.999512
1692.390625	7826.340820
1690.789063	7948.114746
1689.189453	7918.312500
1687.587891	7836.983398
1685.988281	7705.722656
1684.386719	7808.683594
1682.785156	7658.753906
1681.181641	7588.470215
1679.580078	7501.054199
1677.976563	7497.903809
1676.373047	7388.710938
1674.769531	7362.197754
1673.166016	7316.989746
1671.562500	7368.424805
1669.957031	7293.629395
1668.353516	7345.046875
1666.748047	7323.241211
1665.142578	7460.272461
1663.537109	7360.609863
1661.929688	7486.678711
1660.324219	7458.634766
1658.716797	7450.827637
1657.109375	7483.466309
1655.501953	7778.912598
1653.894531	7687.080566
1652.285156	7674.565918
1650.677734	7879.640137
1649.068359	8092.395996
1647.458984	8213.403320
1645.849609	8307.955078
1644.240234	8431.969727
1642.628906	8659.951172
1641.019531	8890.938477
1639.408203	9100.100586
1637.796875	9287.452148
1636.185547	9636.047852
1634.572266	9913.155273
1632.960938	10204.098633
1631.347656	10515.069336
1629.734375	10717.416016
1628.121094	11122.667969
1626.507813	11245.787109
1624.894531	11528.389648
1623.279297	11529.032227
1621.664063	11593.152344
1620.048828	12002.424805
1618.433594	11922.491211
1616.818359	11788.435547
1615.203125	11635.874023
1613.585938	11712.271484
1611.968750	11666.480469
1610.351563	11756.750000
1608.734375	12024.723633
1607.117188	12099.423828
1605.498047	12293.051758
1603.878906	12494.318359
1602.261719	12731.017578
1600.640625	12916.664063
1599.021484	12947.868164
1597.402344	12962.083008
1595.781250	13159.902344
1594.162109	13038.311523
1592.541016	12922.941406
1590.919922	13021.953125
1589.296875	12900.466797
1587.675781	12939.328125
1586.052734	12908.827148
1584.429688	12617.967773
1582.806641	12715.394531
1581.183594	12637.217773
1579.560547	12848.532227
1577.935547	12778.055664
1576.312500	12901.523438
1574.687500	12807.983398
1573.062500	12943.697266
1571.435547	12882.484375
1569.810547	12870.503906
1568.183594	12827.779297
1566.558594	12711.294922
1564.931641	12505.729492
1563.304688	12421.625977
1561.675781	12400.535156
1560.048828	12324.166016
1558.419922	12266.253906
1556.791016	12429.414063
1555.162109	12489.676758
1553.533203	12414.884766
1551.904297	12650.006836
1550.273438	12674.904297
1548.642578	12558.715820
1547.011719	12615.814453
1545.380859	12553.333008
1543.750000	12719.208984
1542.119141	12301.281250
1540.486328	12554.450195
1538.853516	12383.297852
1537.220703	11974.894531
1535.587891	12102.442383
1533.955078	11737.125000
1532.320313	11636.677734
1530.685547	11586.755859
1529.052734	11596.503906
1527.416016	11427.335938
1525.781250	11311.749023
1524.146484	11286.391602
1522.509766	11221.312500
1520.873047	11272.375000
1519.236328	11030.133789
1517.599609	11058.305664
1515.962891	11188.764648
1514.324219	11282.529297
1512.687500	11153.428711
1511.048828	11262.417969
1509.410156	11134.900391
1507.771484	11341.458008
1506.130859	11430.510742
1504.492188	11449.393555
1502.851563	11692.328125
1501.210938	11593.805664
1499.570313	11653.774414
1497.927734	11689.344727
1496.287109	11875.667969
1494.644531	11716.282227
1493.001953	11599.587891
1491.359375	11685.359375
1489.716797	11605.238281
1488.074219	11456.693359
1486.429688	11209.350586
1484.785156	11269.277344
1483.140625	11341.339844
1481.496094	11071.378906
1479.851563	11189.040039
1478.207031	11147.123047
1476.560547	11094.589844
1474.914063	11125.603516
1473.267578	11249.220703
1471.621094	11353.049805
1469.972656	11248.913086
1468.326172	11288.966797
1466.677734	11392.716797
1465.029297	11370.537109
1463.380859	11242.220703
1461.732422	11268.592773
1460.082031	11082.755859
1458.431641	11181.887695
1456.783203	11249.159180
1455.132813	11046.782227
1453.480469	10861.150391
1451.830078	10764.926758
1450.177734	10547.645508
1448.527344	10341.051758
1446.875000	10111.850586
1445.220703	9941.745117
1443.568359	9895.729492
1441.916016	9586.629883
1440.261719	9583.040039
1438.607422	9472.137695
1436.953125	9394.528320
1435.298828	9191.556641
1433.642578	9189.561523
1431.988281	9220.789063
1430.332031	9226.335938
1428.675781	9094.518555
1427.019531	9263.075195
1425.361328	8990.986328
1423.705078	9114.236328
1422.046875	9238.940430
1420.388672	9258.041992
1418.730469	9171.608398
1417.072266	9154.541992
1415.412109	9452.412109
1413.753906	9117.416992
1412.093750	9080.790039
1410.433594	8982.438477
1408.773438	9027.154297
1407.111328	9061.313477
1405.451172	9089.437500
1403.789063	9338.716797
1402.126953	9323.144531
1400.464844	9430.896484
1398.802734	9436.358398
1397.138672	9683.837891
1395.474609	9665.194336
1393.812500	9753.241211
1392.146484	9689.521484
1390.482422	9610.808594
1388.818359	9497.592773
1387.152344	9504.527344
1385.486328	9560.988281
1383.820313	9428.347656
1382.154297	9264.256836
1380.488281	9376.229492
1378.820313	9425.167969
1377.154297	9513.065430
1375.486328	9521.478516
1373.818359	9472.938477
1372.148438	9652.163086
1370.480469	9660.537109
1368.810547	9766.254883
1367.140625	9891.390625
1365.470703	10058.387695
1363.800781	10128.025391
1362.130859	10112.340820
1360.458984	10114.613281
1358.787109	10194.660156
1357.115234	10183.454102
1355.443359	10293.349609
1353.771484	10195.431641
1352.097656	10220.094727
1350.423828	10349.329102
1348.751953	10359.008789
1347.076172	10495.622070
1345.402344	10588.875000
1343.728516	10770.157227
1342.052734	10954.344727
1340.376953	11096.671875
1338.701172	11225.508789
1337.025391	11540.717773
1335.347656	11854.295898
1333.671875	11909.830078
1331.994141	12035.389648
1330.316406	12047.644531
1328.638672	12016.687500
1326.960938	12028.938477
1325.281250	11938.431641
1323.601563	11922.404297
1321.921875	11962.945313
1320.242188	12091.268555
1318.562500	12002.310547
1316.880859	12044.291016
1315.201172	12032.713867
1313.519531	12046.416992
1311.837891	12152.276367
1310.154297	12376.983398
1308.472656	12375.739258
1306.789063	12638.918945
1305.105469	12722.271484
1303.421875	12924.376953
1301.738281	12838.388672
1300.054688	12759.857422
1298.369141	12662.070313
1296.683594	12663.723633
1294.998047	11978.634766
1293.312500	11857.354492
1291.626953	11318.038086
1289.939453	11085.785156
1288.253906	10846.224609
1286.566406	10682.331055
1284.878906	10565.909180
1283.189453	10590.227539
1281.501953	10377.634766
1279.812500	10304.283203
1278.123047	10390.798828
1276.433594	10381.098633
1274.744141	10676.137695
1273.052734	10642.712891
1271.363281	10687.669922
1269.671875	10849.393555
1267.980469	10951.924805
1266.289063	11107.604492
1264.595703	11056.387695
1262.904297	10943.158203
1261.210938	11092.827148
1259.517578	11035.738281
1257.824219	10938.821289
1256.128906	10579.272461
1254.435547	10466.268555
1252.740234	10233.835938
1251.044922	9886.477539
1249.349609	9862.163086
1247.652344	9650.653320
1245.957031	9767.878906
1244.259766	9706.768555
1242.562500	9856.334961
1240.865234	9846.776367
1239.167969	10099.312500
1237.468750	10253.104492
1235.769531	10446.564453
1234.072266	10432.464844
1232.371094	10438.965820
1230.671875	10454.288086
1228.972656	10263.739258
1227.271484	9899.799805
1225.570313	9650.665039
1223.869141	9300.248047
1222.167969	9030.789063
1220.464844	8842.234375
1218.763672	8781.520508
1217.060547	8582.826172
1215.357422	8685.124023
1213.654297	8527.627930
1211.949219	8531.590820
1210.246094	8517.948242
1208.541016	8404.588867
1206.835938	8414.437500
1205.130859	8245.447266
1203.423828	8209.894531
1201.718750	8266.665039
1200.011719	8146.159668
1198.304688	7923.188965
1196.597656	8020.980957
1194.888672	7951.844727
1193.181641	7955.916504
1191.472656	7921.942383
1189.763672	8041.586914
1188.054688	7912.539063
1186.343750	8007.272461
1184.634766	8189.677734
1182.923828	8249.226563
1181.212891	8627.303711
1179.501953	8788.991211
1177.791016	8877.575195
1176.078125	8647.777344
1174.365234	8676.493164
1172.652344	8550.474609
1170.939453	8293.175781
1169.226563	8173.134766
1167.511719	7910.200195
1165.798828	7781.547363
1164.083984	7676.279785
1162.369141	7413.631836
1160.652344	7344.925781
1158.937500	7126.179199
1157.220703	7110.007324
1155.503906	7178.310059
1153.787109	7052.931152
1152.070313	6956.721680
1150.351563	7009.001465
1148.632813	6803.717285
1146.916016	6758.541504
1145.195313	6730.837891
1143.476563	6768.578125
1141.757813	6758.328125
1140.037109	6585.302734
1138.316406	6583.815430
1136.595703	6463.204102
1134.875000	6315.051270
1133.152344	6332.501465
1131.429688	6136.535645
1129.708984	6101.765625
1127.984375	6258.554688
1126.261719	6080.145996
1124.539063	6142.589355
1122.814453	6081.745117
1121.089844	6174.604004
1119.365234	6144.217285
1117.640625	6131.232910
1115.914063	6221.118164
1114.187500	6209.569336
1112.462891	6264.639160
1110.734375	6412.343750
1109.007813	6290.749023
1107.281250	6361.679688
1105.552734	6409.428711
1103.824219	6379.044922
1102.095703	6238.765137
1100.367188	6180.960938
1098.636719	6036.452148
1096.908203	6011.958496
1095.177734	5981.695801
1093.447266	5922.555664
1091.714844	5833.113770
1089.984375	5967.511719
1088.251953	5821.800781
1086.519531	5680.484863
1084.787109	5625.806152
1083.054688	5589.904785
1081.320313	5571.326172
1079.585938	5508.056152
1077.851563	5601.945801
1076.117188	5687.144531
1074.382813	5916.395508
1072.648438	5891.998047
1070.912109	6108.134277
1069.175781	6272.333984
1067.439453	6501.240234
1065.701172	6494.000488
1063.964844	6360.136230
1062.226563	6037.873535
1060.488281	5950.198730
1058.750000	5799.292480
1057.011719	5628.328125
1055.271484	5566.675781
1053.531250	5447.572266
1051.791016	5374.495605
1050.050781	5337.359375
1048.310547	5274.391602
1046.568359	5281.799805
1044.826172	5254.755859
1043.083984	5302.344238
1041.341797	5285.349609
1039.599609	5282.706055
1037.855469	5222.702148
1036.113281	5258.782227
1034.369141	5135.742188
1032.623047	5209.083984
1030.878906	5179.236328
1029.132813	5176.617188
1027.386719	5242.736816
1025.640625	5198.583496
1023.894531	5117.233398
1022.148438	5241.993652
1020.400391	5246.514160
1018.652344	5253.892578
1016.904297	5242.676270
1015.156250	5234.323730
1013.406250	5155.933105
1011.658203	5199.051270
1009.908203	5112.130859
1008.158203	5015.250488
1006.408203	4955.545410
1004.656250	4938.700684
1002.904297	5023.212402
1001.152344	5007.786133
999.400391	5012.341309
997.648438	5068.247070
995.896484	4954.415527
994.142578	4958.978516
992.388672	4922.199707
990.634766	5027.953125
988.878906	4956.978516
987.125000	5005.693848
985.369141	4950.421875
983.613281	4926.499512
981.857422	4943.869629
980.099609	4908.573242
978.343750	4945.858398
976.585938	4866.478027
974.828125	4947.843262
973.070313	4990.779297
971.310547	4978.254883
969.552734	5042.481934
967.792969	5082.522949
966.033203	5132.489258
964.273438	5161.128418
962.511719	5353.042969
960.750000	5320.575195
958.990234	5296.637207
957.226563	5401.831543
955.464844	5341.001465
953.703125	5308.564453
951.939453	5273.305664
950.175781	5209.710449
948.412109	5204.252930
946.648438	5093.942383
944.882813	5075.763672
943.117188	4976.863281
941.351563	5001.197754
939.585938	5154.343750
937.820313	4940.852539
936.052734	4888.767578
934.285156	4955.537598
932.517578	5010.961426
930.750000	4919.303223
928.982422	4956.331055
927.212891	4820.913574
925.443359	4843.815918
923.673828	4863.881836
921.904297	4947.493652
920.132813	4877.155273
918.361328	4905.667969
916.591797	4910.173828
914.818359	5004.983887
913.046875	4881.088379
911.275391	4930.727539
909.501953	4887.279297
907.728516	4967.907227
905.955078	5072.457031
904.179688	5236.139160
902.406250	5253.234375
900.630859	5156.238770
898.855469	4973.394043
897.080078	4915.925293
895.302734	4840.186035
893.525391	4810.916504
891.750000	4750.710449
889.970703	4776.326172
888.193359	4568.511719
886.416016	4653.200684
884.636719	4646.493652
882.857422	4594.825195
881.078125	4558.632813
879.296875	4462.063965
877.517578	4543.868164
875.736328	4452.962402
873.955078	4496.834961
872.173828	4466.318359
870.390625	4354.449707
868.609375	4350.627441
866.826172	4475.809082
865.042969	4340.183594
863.259766	4393.829590
861.474609	4387.197266
859.689453	4449.211426
857.904297	4478.983398
856.119141	4510.141113
854.333984	4472.688477
852.546875	4480.039551
850.761719	4481.789551
848.974609	4505.920898
847.185547	4462.908203
845.398438	4548.555664
843.609375	4579.643066
841.822266	4644.257813
840.031250	4581.689453
838.242188	4637.891113
836.453125	4610.268066
834.662109	4679.002441
832.871094	4675.113281
831.080078	4802.416504
829.289063	4781.755371
827.496094	4669.034668
825.703125	4706.989746
823.910156	4760.264160
822.117188	4699.204590
820.324219	4756.636230
818.529297	4940.835449
816.734375	4950.819336
814.939453	4997.008301
813.144531	4912.291992
811.347656	4998.836914
809.550781	5142.400879
807.755859	5384.685547
805.957031	5351.425293
804.160156	5405.796387
802.361328	5433.724121
800.564453	5414.375000
798.765625	5654.918945
