#Wave		#Intensity
1585.210938	11811.367188
1584.209961	11963.723633
1583.208984	11981.221680
1582.208008	11911.331055
1581.206055	11819.003906
1580.204102	11824.041992
1579.202148	11666.899414
1578.200195	11544.744141
1577.198242	11659.572266
1576.195313	11886.559570
1575.192383	11876.618164
1574.189453	12001.274414
1573.186523	11906.586914
1572.182617	11854.291016
1571.178711	11769.635742
1570.174805	11632.715820
1569.170898	11630.306641
1568.166992	11782.239258
1567.162109	11697.666992
1566.158203	11735.057617
1565.153320	11727.652344
1564.147461	11580.958984
1563.142578	11695.440430
1562.136719	11615.944336
1561.130859	11854.658203
1560.125000	11998.833984
1559.119141	12321.851563
1558.113281	12386.374023
1557.106445	12431.000000
1556.099609	12795.940430
1555.092773	12939.769531
1554.084961	13088.502930
1553.078125	13187.541016
1552.070313	13199.697266
1551.062500	13107.661133
1550.054688	13340.558594
1549.045898	13171.663086
1548.038086	13203.643555
1547.029297	13228.173828
1546.020508	13079.229492
1545.011719	12885.750000
1544.001953	13041.612305
1542.992188	12808.595703
1541.982422	12758.899414
1540.972656	12756.257813
1539.962891	12879.840820
1538.952148	12634.675781
1537.942383	12646.903320
1536.931641	12421.674805
1535.919922	12409.210938
1534.909180	12594.545898
1533.897461	12280.477539
1532.886719	12248.278320
1531.874023	12146.906250
1530.862305	12144.391602
1529.850586	11939.347656
1528.837891	11773.897461
1527.825195	11931.934570
1526.812500	11820.857422
1525.799805	11892.445313
1524.786133	11946.730469
1523.772461	11766.647461
1522.758789	11569.374023
1521.745117	11603.964844
1520.731445	11586.770508
1519.716797	11761.833984
1518.702148	11643.578125
1517.687500	11641.166992
1516.672852	11486.036133
1515.657227	11569.852539
1514.642578	11638.860352
1513.626953	11520.750000
1512.610352	11720.181641
1511.594727	11838.328125
1510.579102	11958.884766
1509.562500	11309.516602
1508.545898	11486.692383
1507.529297	11683.462891
1506.511719	11499.141602
1505.494141	11713.030273
1504.477539	11646.718750
1503.458984	11875.227539
1502.441406	11772.067383
1501.423828	11764.717773
1500.405273	11899.764648
1499.386719	11725.479492
1498.368164	11970.910156
1497.348633	11742.703125
1496.330078	11826.126953
1495.310547	11958.565430
1494.291016	11781.994141
1493.271484	12027.156250
1492.250977	11904.564453
1491.231445	12007.468750
1490.210938	11718.331055
1489.190430	11977.997070
1488.168945	11982.862305
1487.148438	12068.523438
1486.126953	11943.624023
1485.105469	11884.856445
1484.083984	11916.650391
1483.061523	12092.770508
1482.040039	12224.790039
1481.017578	12014.393555
1479.995117	12285.734375
1478.971680	12246.520508
1477.949219	12283.083984
1476.925781	12539.537109
1475.902344	12458.764648
1474.878906	12588.070313
1473.855469	12966.392578
1472.831055	12892.904297
1471.806641	13222.188477
1470.782227	13836.857422
1469.757813	13719.314453
1468.733398	14016.507813
1467.708008	14452.592773
1466.682617	15015.289063
1465.657227	15592.377930
1464.631836	16037.610352
1463.605469	16387.621094
1462.579102	17039.589844
1461.552734	17391.681641
1460.526367	17750.933594
1459.500000	17954.207031
1458.472656	17965.085938
1457.445313	18087.914063
1456.417969	17891.929688
1455.390625	17306.783203
1454.362305	17308.054688
1453.334961	17066.146484
1452.306641	16471.806641
1451.277344	16191.280273
1450.249023	15473.422852
1449.219727	15339.003906
1448.191406	14857.256836
1447.162109	14492.289063
1446.131836	14377.579102
1445.102539	13971.589844
1444.072266	14060.921875
1443.041992	13968.211914
1442.011719	13584.393555
1440.981445	13591.273438
1439.950195	13474.464844
1438.918945	13352.853516
1437.887695	13170.687500
1436.856445	13114.628906
1435.825195	13138.557617
1434.792969	12765.155273
1433.760742	12840.011719
1432.728516	12830.077148
1431.696289	12621.608398
1430.663086	12447.116211
1429.629883	12437.267578
1428.596680	12306.438477
1427.563477	12313.555664
1426.530273	12192.479492
1425.496094	12056.944336
1424.461914	12112.459961
1423.427734	11875.475586
1422.393555	11928.587891
1421.358398	11827.043945
1420.323242	11720.709961
1419.288086	11954.954102
1418.252930	11979.026367
1417.217773	11959.633789
1416.181641	11771.294922
1415.145508	12072.898438
1414.109375	11860.486328
1413.073242	11903.846680
1412.036133	12079.828125
1411.000000	12101.423828
1409.962891	12421.925781
1408.924805	12547.074219
1407.887695	12720.362305
1406.849609	13153.761719
1405.812500	13471.367188
1404.773438	13605.822266
1403.735352	14344.529297
1402.697266	14346.354492
1401.658203	14880.037109
1400.619141	15254.693359
1399.580078	15131.232422
1398.540039	15144.913086
1397.500977	15204.275391
1396.460938	15229.953125
1395.420898	15346.957031
1394.380859	14971.276367
1393.339844	14811.984375
1392.298828	14621.531250
1391.257813	14483.991211
1390.216797	14418.541016
1389.175781	14413.131836
1388.133789	14642.931641
1387.091797	14699.865234
1386.049805	15164.618164
1385.007813	15106.285156
1383.964844	15513.203125
1382.922852	16193.275391
1381.879883	16688.486328
1380.835938	17483.062500
1379.792969	17714.226563
1378.749023	18323.794922
1377.706055	18413.375000
1376.661133	18653.773438
1375.617188	18843.796875
1374.573242	18851.826172
1373.528320	18953.181641
1372.483398	18547.265625
1371.438477	18490.763672
1370.392578	18295.570313
1369.347656	18129.152344
1368.301758	17759.601563
1367.255859	17588.582031
1366.208984	16942.107422
1365.163086	16694.876953
1364.116211	16316.376953
1363.069336	15904.601563
1362.022461	15738.917969
1360.974609	15513.625000
1359.927734	15534.244141
1358.879883	15309.085938
1357.832031	15355.978516
1356.783203	15328.912109
1355.735352	15540.314453
1354.686523	15794.540039
1353.637695	15867.506836
1352.588867	15961.888672
1351.539063	16542.277344
1350.490234	16660.296875
1349.440430	17340.320313
1348.390625	17803.378906
1347.339844	18418.599609
1346.290039	19243.009766
1345.239258	19729.169922
1344.188477	20557.714844
1343.137695	21155.187500
1342.085938	21597.830078
1341.034180	22075.951172
1339.982422	22751.167969
1338.930664	23117.144531
1337.878906	23570.878906
1336.826172	23584.937500
1335.773438	23575.236328
1334.720703	23852.865234
1333.667969	23627.066406
1332.614258	23679.070313
1331.561523	23436.787109
1330.507813	22575.353516
1329.453125	22487.587891
1328.399414	21802.210938
1327.344727	21555.777344
1326.290039	20844.804688
1325.235352	20323.738281
1324.180664	20032.742188
1323.125000	19630.519531
1322.070313	19574.281250
1321.014648	19214.947266
1319.958008	18978.878906
1318.902344	18470.689453
1317.845703	18386.337891
1316.789063	17854.822266
1315.732422	17524.607422
1314.675781	17357.724609
1313.618164	17141.253906
1312.560547	16690.824219
1311.502930	16382.399414
1310.445313	16048.109375
1309.386719	15621.816406
1308.329102	15450.813477
1307.270508	15107.480469
1306.210938	14868.182617
1305.152344	14329.180664
1304.092773	14621.180664
1303.033203	14063.579102
1301.973633	13909.627930
1300.914063	13828.859375
1299.853516	13594.842773
1298.792969	13483.522461
1297.732422	13600.894531
1296.671875	13463.694336
1295.611328	13239.373047
1294.549805	13097.594727
1293.488281	12972.360352
1292.426758	13068.519531
1291.364258	12943.342773
1290.302734	13006.512695
1289.240234	13232.026367
1288.177734	12749.281250
1287.114258	13078.249023
1286.051758	12929.680664
1284.988281	13100.937500
1283.924805	13058.207031
1282.861328	13339.823242
1281.796875	13433.341797
1280.732422	13851.012695
1279.667969	14136.977539
1278.603516	14258.444336
1277.539063	14612.283203
1276.473633	14951.888672
1275.408203	15089.529297
1274.342773	15435.926758
1273.277344	15491.303711
1272.210938	15565.417969
1271.145508	15498.814453
1270.079102	15352.533203
1269.011719	15107.875000
1267.945313	14896.124023
1266.877930	14721.947266
1265.810547	14393.251953
1264.743164	13879.695313
1263.674805	13555.999023
1262.607422	13209.031250
1261.539063	12988.583984
1260.470703	12941.374023
1259.401367	12559.665039
1258.333008	12316.104492
1257.263672	12294.786133
1256.194336	12238.408203
1255.125000	11941.310547
1254.054688	11859.324219
1252.985352	11912.878906
1251.915039	11679.103516
1250.843750	11636.922852
1249.773438	11545.728516
1248.702148	11531.604492
1247.630859	11718.196289
1246.559570	11722.706055
1245.488281	11223.319336
1244.416016	11225.598633
1243.343750	11533.349609
1242.271484	11514.578125
1241.199219	11400.248047
1240.125977	11288.296875
1239.053711	11325.502930
1237.980469	11537.396484
1236.906250	11532.613281
1235.833008	11492.904297
1234.758789	11585.902344
1233.684570	11532.233398
1232.610352	11520.470703
1231.536133	11438.919922
1230.460938	11643.489258
1229.385742	11547.992188
1228.310547	11533.907227
1227.235352	11680.212891
1226.159180	11619.625977
1225.083008	11538.152344
1224.006836	11428.837891
1222.930664	11361.372070
1221.853516	11426.286133
1220.777344	11558.493164
1219.700195	11419.090820
1218.622070	11551.241211
1217.544922	11518.617188
1216.466797	11495.283203
1215.388672	11539.208984
1214.310547	11263.165039
1213.232422	11518.055664
1212.153320	11624.517578
1211.074219	11812.028320
1209.995117	11899.847656
1208.916016	11716.657227
1207.835938	11885.500000
1206.755859	11697.758789
1205.675781	12070.209961
1204.595703	11838.541016
1203.514648	11738.840820
1202.434570	11958.380859
1201.353516	11898.008789
1200.271484	11987.945313
1199.190430	11726.486328
1198.108398	11735.531250
1197.026367	11848.546875
1195.944336	11839.080078
1194.862305	11624.064453
1193.779297	11543.065430
1192.696289	11501.346680
1191.613281	11210.372070
1190.530273	11108.743164
1189.446289	11226.331055
1188.362305	11214.698242
1187.278320	10868.683594
1186.194336	10709.571289
1185.109375	10794.868164
1184.024414	10829.426758
1182.939453	10670.422852
1181.854492	10755.670898
1180.768555	10472.378906
1179.683594	10262.892578
1178.597656	10338.962891
1177.510742	10401.188477
1176.424805	10155.031250
1175.337891	10392.119141
1174.250977	10408.288086
1173.164063	10245.073242
1172.077148	10415.310547
1170.989258	10413.071289
1169.901367	10323.500977
1168.813477	10208.693359
1167.724609	10362.708008
1166.636719	10298.466797
1165.547852	10367.434570
1164.458984	10294.035156
1163.369141	10239.029297
1162.280273	10360.741211
1161.190430	10156.617188
1160.100586	10253.060547
1159.010742	10145.362305
1157.919922	10333.476563
1156.829102	10230.389648
1155.738281	10125.055664
1154.647461	10237.436523
1153.555664	10239.811523
1152.464844	10354.408203
1151.373047	10395.681641
1150.280273	10615.500977
1149.188477	10599.478516
1148.095703	10572.019531
1147.002930	10755.051758
1145.910156	10578.893555
1144.817383	10764.129883
1143.723633	10633.770508
1142.629883	10784.625000
1141.536133	10745.730469
1140.441406	10576.613281
1139.347656	10530.925781
1138.252930	10688.520508
1137.158203	10588.024414
1136.062500	10633.675781
1134.967773	10451.067383
1133.872070	10444.243164
1132.776367	10729.440430
1131.679688	10469.376953
1130.583984	10619.898438
1129.487305	10599.360352
1128.390625	10458.021484
1127.292969	10578.819336
1126.196289	10565.135742
1125.098633	10392.001953
1124.000977	10526.397461
1122.903320	10423.930664
1121.804688	10469.477539
1120.706055	10485.416016
1119.607422	10337.511719
1118.508789	10437.644531
1117.409180	10144.245117
1116.310547	10303.499023
1115.210938	10233.058594
1114.110352	10287.663086
1113.010742	10294.520508
1111.910156	10180.956055
1110.809570	10162.845703
1109.708984	10235.583008
1108.607422	10185.677734
1107.506836	10060.882813
1106.405273	10040.540039
1105.303711	10142.735352
1104.201172	10056.593750
1103.098633	9990.901367
1101.996094	10165.600586
1100.893555	9943.481445
1099.791016	10002.516602
1098.687500	9900.631836
1097.583984	9889.415039
1096.480469	9875.937500
1095.376953	9828.495117
1094.272461	9880.694336
1093.167969	9661.233398
1092.063477	9867.338867
1090.958008	9595.932617
1089.853516	9813.272461
1088.748047	9826.965820
1087.642578	9743.420898
1086.536133	9876.938477
1085.430664	9886.085938
1084.324219	9741.568359
1083.217773	9926.958008
1082.110352	9908.981445
1081.003906	9961.016602
1079.896484	9988.193359
1078.789063	9841.549805
1077.680664	10004.143555
1076.573242	9780.846680
1075.464844	9925.334961
1074.356445	9988.569336
1073.247070	9950.310547
1072.138672	10126.224609
1071.029297	9925.677734
1069.919922	9923.508789
1068.809570	9858.259766
1067.700195	9779.526367
1066.589844	9916.999023
1065.479492	9950.851563
1064.368164	9935.168945
1063.257813	9950.997070
1062.146484	9809.329102
1061.035156	9849.918945
1059.922852	9744.314453
1058.811523	9802.886719
1057.699219	9933.364258
1056.586914	9654.759766
1055.473633	9908.789063
1054.361328	9765.094727
1053.248047	9731.511719
1052.134766	9679.978516
1051.021484	9711.529297
1049.907227	9736.333008
1048.792969	9747.660156
1047.678711	9859.937500
1046.564453	9761.327148
1045.449219	9900.458984
1044.333984	9891.559570
1043.218750	9833.350586
1042.103516	9817.745117
1040.987305	9833.512695
1039.871094	9891.833008
1038.754883	9871.743164
1037.638672	10077.801758
1036.521484	9977.091797
1035.404297	10080.084961
1034.287109	10084.581055
1033.169922	10122.629883
1032.051758	10053.306641
1030.933594	10138.300781
1029.815430	10243.376953
1028.697266	10140.543945
1027.578125	10048.928711
1026.458984	10243.316406
1025.339844	10165.118164
1024.220703	10276.767578
1023.100586	10285.666992
1021.980469	10424.024414
1020.860352	10377.093750
1019.740234	10542.142578
1018.619141	10457.284180
1017.498047	10606.628906
1016.376953	10644.423828
1015.255859	10528.387695
1014.133789	10693.215820
1013.011719	10670.802734
1011.889648	10479.092773
1010.767578	10309.739258
1009.644531	10452.199219
1008.521484	10650.250977
1007.398438	10592.255859
1006.274414	10407.446289
1005.151367	10382.899414
1004.027344	10155.954102
1002.902344	10338.282227
1001.778320	10269.298828
1000.653320	10422.622070
999.528320	10322.537109
998.403320	10262.486328
997.278320	10171.364258
996.152344	10100.267578
995.026367	9991.457031
993.900391	10120.215820
992.773438	10040.297852
991.646484	10162.330078
990.519531	10093.529297
989.392578	9982.617188
988.265625	10080.187500
987.137695	10195.448242
986.009766	10148.861328
984.881836	10208.656250
983.752930	10319.378906
982.624023	10449.985352
981.495117	10208.509766
980.366211	10354.579102
979.236328	10268.170898
978.106445	10283.595703
976.976563	10152.990234
975.846680	10053.409180
974.715820	10161.750977
973.585938	10115.274414
972.454102	10132.921875
971.323242	9975.970703
970.191406	9936.192383
969.060547	10216.739258
967.927734	9989.197266
966.795898	10110.626953
965.663086	10150.322266
964.530273	10156.893555
963.397461	10538.577148
962.264648	10264.884766
961.130859	10370.674805
959.997070	10460.980469
958.863281	10467.470703
957.729492	10802.369141
956.594727	10731.651367
955.459961	10696.214844
954.325195	10471.365234
953.189453	10275.243164
952.053711	10138.651367
950.917969	10098.971680
949.782227	10017.496094
948.646484	10191.278320
947.509766	9971.235352
946.373047	9973.410156
945.235352	9936.005859
944.098633	9872.238281
942.960938	9810.696289
941.823242	9931.552734
940.685547	9804.120117
939.546875	9960.062500
938.408203	9815.113281
937.269531	10025.863281
936.129883	10218.960938
934.991211	9883.143555
933.851563	10071.796875
932.711914	10166.051758
931.571289	10437.882813
930.431641	10332.509766
929.291016	10249.100586
928.149414	10338.844727
927.008789	10454.839844
925.867188	10386.789063
924.725586	10310.007813
923.583984	10202.609375
922.441406	10084.313477
921.299805	10152.084961
920.157227	9819.433594
919.013672	9913.482422
917.871094	10009.673828
916.727539	9790.971680
915.583984	9721.012695
914.439453	9694.793945
913.295898	9648.920898
912.151367	9476.366211
911.006836	9502.633789
909.861328	9450.281250
908.716797	9430.697266
907.571289	9376.201172
906.424805	9507.202148
905.279297	9363.266602
904.132813	9474.581055
902.986328	9472.454102
901.839844	9463.786133
900.692383	9418.069336
899.545898	9333.147461
898.398438	9548.913086
897.250000	9505.382813
896.102539	9529.378906
894.954102	9464.098633
893.805664	9440.205078
892.656250	9566.476563
891.507813	9564.325195
890.358398	9401.209961
889.208984	9462.161133
888.058594	9383.934570
886.908203	9312.263672
885.758789	9342.766602
884.607422	9331.972656
883.457031	9338.560547
882.305664	9279.991211
881.154297	9360.410156
880.002930	9217.200195
878.850586	9312.787109
877.698242	9273.801758
876.545898	9269.542969
875.393555	9178.531250
874.240234	9215.492188
873.086914	9046.488281
871.933594	9146.315430
870.780273	9170.254883
869.625977	9046.868164
868.471680	9129.296875
867.317383	9157.552734
866.162109	9071.053711
865.007813	9127.446289
863.852539	9183.812500
862.696289	9054.094727
861.541016	9151.546875
860.384766	9000.267578
859.228516	9236.054688
858.072266	9110.761719
856.915039	8907.727539
855.757813	9024.543945
854.600586	8979.302734
853.442383	9109.005859
852.285156	9029.219727
851.126953	9083.300781
849.968750	8940.969727
848.809570	9033.881836
847.650391	9122.436523
846.491211	9070.769531
845.332031	8963.066406
844.171875	9045.107422
843.012695	9092.627930
841.851563	8980.680664
840.691406	9006.651367
839.530273	9155.370117
838.369141	8974.580078
837.208008	9194.276367
836.046875	9220.171875
834.884766	9024.424805
833.722656	9140.699219
832.560547	9190.245117
831.397461	8979.583984
830.234375	9177.478516
829.071289	9119.514648
827.908203	9244.226563
826.744141	9229.238281
825.580078	9323.797852
824.416016	9338.860352
823.251953	9137.081055
822.086914	9283.107422
820.921875	9190.872070
819.756836	9115.840820
818.590820	9158.813477
817.425781	9113.844727
816.259766	9053.887695
815.092773	9246.884766
813.926758	8869.763672
812.759766	8996.296875
811.592773	9109.919922
810.424805	9097.140625
809.257813	8803.892578
808.089844	8896.074219
806.920898	9065.254883
805.752930	8881.330078
804.583984	9024.766602
803.415039	8967.109375
802.246094	8962.930664
801.076172	9072.045898
799.906250	8948.164063
798.736328	8971.766602
797.566406	9040.216797
796.395508	8901.475586
795.224609	9021.153320
794.053711	9305.147461
792.881836	9422.542969
791.710938	9300.907227
790.538086	9264.656250
789.366211	9303.066406
788.194336	9303.078125
787.021484	9492.816406
785.848633	9424.582031
784.674805	9343.592773
783.500977	9358.503906
782.327148	9205.150391
781.153320	9345.716797
779.979492	9281.847656
778.804688	9126.485352
777.629883	9005.240234
776.454102	9130.829102
775.279297	9128.745117
774.103516	8971.430664
772.927734	9035.286133
771.750977	9179.878906
770.575195	9190.532227
769.398438	9029.095703
768.220703	9216.069336
767.043945	9243.692383
765.866211	9167.273438
764.688477	9252.202148
763.510742	9366.800781
762.332031	9112.191406
761.153320	9396.455078
759.974609	9589.402344
758.794922	9769.540039
757.616211	9714.314453
756.436523	10027.845703
755.255859	10231.062500
754.076172	10444.776367
752.895508	10497.445313
751.714844	11282.647461
750.533203	11572.172852
749.352539	12016.051758
748.170898	12827.869141
746.988281	13539.894531
745.806641	14566.698242
744.624023	15766.403320
743.441406	17174.826172
742.258789	19501.904297
741.075195	22009.621094
739.891602	25287.203125
738.708008	29087.029297
737.523438	32589.513672
736.339844	35501.441406
735.155273	37546.757813
733.969727	38331.488281
732.785156	37088.656250
731.599609	34952.187500
