#Wave		#Intensity
1585.210938	9128.895508
1584.209961	9178.848633
1583.208984	9321.780273
1582.208008	9197.514648
1581.206055	9342.878906
1580.204102	9365.899414
1579.202148	9406.375000
1578.200195	9519.175781
1577.198242	9380.032227
1576.195313	9238.452148
1575.192383	9346.230469
1574.189453	9498.828125
1573.186523	9364.787109
1572.182617	9400.218750
1571.178711	9405.745117
1570.174805	9234.449219
1569.170898	9389.399414
1568.166992	9474.583984
1567.162109	9455.199219
1566.158203	9473.148438
1565.153320	9458.747070
1564.147461	9339.884766
1563.142578	9208.636719
1562.136719	9340.989258
1561.130859	9229.680664
1560.125000	9533.457031
1559.119141	9437.062500
1558.113281	9656.205078
1557.106445	9621.916992
1556.099609	9860.794922
1555.092773	10012.679688
1554.084961	9970.892578
1553.078125	9944.010742
1552.070313	10137.962891
1551.062500	9974.623047
1550.054688	10042.000977
1549.045898	9903.542969
1548.038086	9970.907227
1547.029297	9661.499023
1546.020508	9934.564453
1545.011719	9751.646484
1544.001953	9640.637695
1542.992188	9499.956055
1541.982422	9619.313477
1540.972656	9364.821289
1539.962891	9404.957031
1538.952148	9403.009766
1537.942383	9324.370117
1536.931641	9253.182617
1535.919922	9088.052734
1534.909180	9187.541016
1533.897461	9022.492188
1532.886719	9139.251953
1531.874023	9065.703125
1530.862305	8888.429688
1529.850586	9047.130859
1528.837891	8966.238281
1527.825195	8942.162109
1526.812500	8940.310547
1525.799805	9032.236328
1524.786133	8877.392578
1523.772461	8949.558594
1522.758789	9061.155273
1521.745117	9054.347656
1520.731445	8971.118164
1519.716797	8796.727539
1518.702148	9093.080078
1517.687500	8990.183594
1516.672852	9099.166992
1515.657227	9193.329102
1514.642578	9107.709961
1513.626953	9095.977539
1512.610352	9099.015625
1511.594727	9082.367188
1510.579102	9262.539063
1509.562500	9159.774414
1508.545898	8936.553711
1507.529297	9069.927734
1506.511719	9060.674805
1505.494141	9157.102539
1504.477539	8929.151367
1503.458984	9101.720703
1502.441406	9016.328125
1501.423828	9058.660156
1500.405273	9150.077148
1499.386719	8978.816406
1498.368164	9310.708008
1497.348633	9137.030273
1496.330078	9076.263672
1495.310547	9304.921875
1494.291016	9317.706055
1493.271484	9232.423828
1492.250977	9061.390625
1491.231445	9186.938477
1490.210938	9162.985352
1489.190430	9090.050781
1488.168945	9154.289063
1487.148438	9115.665039
1486.126953	9316.957031
1485.105469	9182.862305
1484.083984	9295.965820
1483.061523	9406.575195
1482.040039	9282.328125
1481.017578	9427.129883
1479.995117	9579.205078
1478.971680	9714.106445
1477.949219	9492.140625
1476.925781	9724.739258
1475.902344	9739.822266
1474.878906	9872.133789
1473.855469	10065.437500
1472.831055	10109.736328
1471.806641	10249.209961
1470.782227	10195.835938
1469.757813	10342.552734
1468.733398	10745.338867
1467.708008	10665.067383
1466.682617	11038.358398
1465.657227	11094.576172
1464.631836	11379.878906
1463.605469	11599.268555
1462.579102	11745.476563
1461.552734	11852.650391
1460.526367	12066.932617
1459.500000	12061.994141
1458.472656	12278.577148
1457.445313	12205.448242
1456.417969	12149.382813
1455.390625	11813.569336
1454.362305	11713.826172
1453.334961	11665.190430
1452.306641	11361.291992
1451.277344	11050.226563
1450.249023	11055.222656
1449.219727	10666.596680
1448.191406	10538.060547
1447.162109	10659.737305
1446.131836	10353.994141
1445.102539	10230.457031
1444.072266	10182.213867
1443.041992	10240.766602
1442.011719	10097.917969
1440.981445	10040.028320
1439.950195	10030.666992
1438.918945	10103.748047
1437.887695	9849.531250
1436.856445	9818.399414
1435.825195	9741.240234
1434.792969	9717.411133
1433.760742	9746.878906
1432.728516	9621.346680
1431.696289	9679.875977
1430.663086	9556.829102
1429.629883	9409.630859
1428.596680	9315.726563
1427.563477	9410.555664
1426.530273	9365.062500
1425.496094	9276.060547
1424.461914	9293.471680
1423.427734	9219.024414
1422.393555	9255.772461
1421.358398	9137.871094
1420.323242	8983.784180
1419.288086	9080.934570
1418.252930	8818.263672
1417.217773	9024.043945
1416.181641	9205.601563
1415.145508	9140.943359
1414.109375	9177.642578
1413.073242	9257.743164
1412.036133	9289.578125
1411.000000	9306.932617
1409.962891	9391.776367
1408.924805	9409.100586
1407.887695	9766.173828
1406.849609	9737.638672
1405.812500	10099.309570
1404.773438	10383.770508
1403.735352	10530.877930
1402.697266	10680.331055
1401.658203	10873.040039
1400.619141	11010.327148
1399.580078	11130.717773
1398.540039	11046.623047
1397.500977	11186.191406
1396.460938	10955.469727
1395.420898	11049.328125
1394.380859	11217.643555
1393.339844	10869.330078
1392.298828	10879.072266
1391.257813	10557.391602
1390.216797	10629.622070
1389.175781	10512.175781
1388.133789	10495.581055
1387.091797	10711.752930
1386.049805	10918.237305
1385.007813	10812.818359
1383.964844	11318.955078
1382.922852	11556.349609
1381.879883	11736.114258
1380.835938	12033.236328
1379.792969	12291.895508
1378.749023	12425.875977
1377.706055	12672.368164
1376.661133	12856.497070
1375.617188	12664.678711
1374.573242	12717.083984
1373.528320	12965.699219
1372.483398	12927.100586
1371.438477	12642.132813
1370.392578	12484.037109
1369.347656	12340.352539
1368.301758	12223.024414
1367.255859	11818.934570
1366.208984	11682.646484
1365.163086	11823.546875
1364.116211	11431.734375
1363.069336	11247.848633
1362.022461	11219.231445
1360.974609	11245.528320
1359.927734	11085.660156
1358.879883	11071.409180
1357.832031	11255.166016
1356.783203	11345.828125
1355.735352	11138.377930
1354.686523	11286.242188
1353.637695	11353.001953
1352.588867	11434.031250
1351.539063	11898.622070
1350.490234	12081.931641
1349.440430	12329.465820
1348.390625	12610.231445
1347.339844	13188.451172
1346.290039	13371.333008
1345.239258	13644.561523
1344.188477	14129.414063
1343.137695	14504.646484
1342.085938	14668.071289
1341.034180	15071.562500
1339.982422	15615.131836
1338.930664	15723.555664
1337.878906	16145.577148
1336.826172	15945.013672
1335.773438	16278.931641
1334.720703	15905.076172
1333.667969	16167.636719
1332.614258	15891.277344
1331.561523	15769.284180
1330.507813	15493.122070
1329.453125	15418.704102
1328.399414	14869.995117
1327.344727	14833.674805
1326.290039	14591.125977
1325.235352	14260.983398
1324.180664	14141.874023
1323.125000	13726.674805
1322.070313	13418.236328
1321.014648	13308.848633
1319.958008	13104.801758
1318.902344	13026.297852
1317.845703	12767.960938
1316.789063	12618.575195
1315.732422	12201.933594
1314.675781	12047.997070
1313.618164	12118.764648
1312.560547	11638.658203
1311.502930	11555.843750
1310.445313	11461.248047
1309.386719	11326.525391
1308.329102	11203.670898
1307.270508	11104.482422
1306.210938	10965.196289
1305.152344	10691.410156
1304.092773	10486.183594
1303.033203	10486.333008
1301.973633	10255.283203
1300.914063	10269.631836
1299.853516	10222.661133
1298.792969	10194.571289
1297.732422	10062.776367
1296.671875	9900.399414
1295.611328	9844.118164
1294.549805	9665.365234
1293.488281	9503.172852
1292.426758	9746.054688
1291.364258	9642.766602
1290.302734	9586.595703
1289.240234	9556.333008
1288.177734	9575.489258
1287.114258	9519.366211
1286.051758	9519.706055
1284.988281	9477.724609
1283.924805	9640.271484
1282.861328	9673.487305
1281.796875	9744.284180
1280.732422	9998.289063
1279.667969	10113.611328
1278.603516	10221.838867
1277.539063	10292.457031
1276.473633	10576.641602
1275.408203	10722.249023
1274.342773	10673.055664
1273.277344	10790.429688
1272.210938	10717.788086
1271.145508	10877.306641
1270.079102	10867.970703
1269.011719	10603.168945
1267.945313	10347.850586
1266.877930	10287.088867
1265.810547	10221.668945
1264.743164	10095.388672
1263.674805	9849.755859
1262.607422	9782.126953
1261.539063	9489.857422
1260.470703	9419.991211
1259.401367	9425.011719
1258.333008	9336.477539
1257.263672	9278.377930
1256.194336	9136.140625
1255.125000	8951.892578
1254.054688	9125.253906
1252.985352	9053.227539
1251.915039	9147.074219
1250.843750	8841.539063
1249.773438	8951.733398
1248.702148	8900.811523
1247.630859	8861.579102
1246.559570	8848.030273
1245.488281	8934.797852
1244.416016	8970.216797
1243.343750	8742.120117
1242.271484	8744.924805
1241.199219	8759.380859
1240.125977	8785.482422
1239.053711	8676.439453
1237.980469	8753.792969
1236.906250	8698.366211
1235.833008	8717.470703
1234.758789	8822.698242
1233.684570	8799.874023
1232.610352	8814.288086
1231.536133	8756.578125
1230.460938	8815.186523
1229.385742	8827.261719
1228.310547	8618.462891
1227.235352	8839.771484
1226.159180	8784.437500
1225.083008	8789.535156
1224.006836	8815.536133
1222.930664	8871.717773
1221.853516	8869.826172
1220.777344	8881.862305
1219.700195	8694.291992
1218.622070	8847.907227
1217.544922	8827.459961
1216.466797	8774.546875
1215.388672	8786.587891
1214.310547	8835.718750
1213.232422	8896.416992
1212.153320	8778.642578
1211.074219	8695.672852
1209.995117	8807.323242
1208.916016	8786.914063
1207.835938	8907.757813
1206.755859	8810.938477
1205.675781	8936.352539
1204.595703	8816.426758
1203.514648	8988.055664
1202.434570	8858.916992
1201.353516	9104.462891
1200.271484	8852.814453
1199.190430	8917.955078
1198.108398	8654.896484
1197.026367	8706.186523
1195.944336	8745.903320
1194.862305	8771.746094
1193.779297	8522.795898
1192.696289	8550.981445
1191.613281	8445.285156
1190.530273	8459.628906
1189.446289	8291.705078
1188.362305	8206.889648
1187.278320	8188.986816
1186.194336	8288.677734
1185.109375	8171.644043
1184.024414	8151.454102
1182.939453	8292.561523
1181.854492	8088.061523
1180.768555	7982.684570
1179.683594	7960.247070
1178.597656	8119.688477
1177.510742	8048.895020
1176.424805	7968.926758
1175.337891	7976.417480
1174.250977	8000.005371
1173.164063	8018.983398
1172.077148	8155.210938
1170.989258	8075.302246
1169.901367	7986.234375
1168.813477	7860.440918
1167.724609	7805.914551
1166.636719	8054.577148
1165.547852	8018.400879
1164.458984	7924.846191
1163.369141	8053.968750
1162.280273	7887.013672
1161.190430	7912.846680
1160.100586	8078.585938
1159.010742	8037.860840
1157.919922	8045.300293
1156.829102	8000.013672
1155.738281	7879.117188
1154.647461	7969.069824
1153.555664	8054.401855
1152.464844	8222.146484
1151.373047	8218.083984
1150.280273	8234.625977
1149.188477	8203.094727
1148.095703	8338.623047
1147.002930	8245.310547
1145.910156	8321.299805
1144.817383	8115.975586
1143.723633	8221.680664
1142.629883	8354.770508
1141.536133	8272.978516
1140.441406	8108.965820
1139.347656	8050.104492
1138.252930	8110.028809
1137.158203	8128.826172
1136.062500	8133.917480
1134.967773	8036.297852
1133.872070	7831.471191
1132.776367	8096.701172
1131.679688	8033.364746
1130.583984	8259.667969
1129.487305	8052.687012
1128.390625	8055.502930
1127.292969	8119.847656
1126.196289	8186.442383
1125.098633	8139.110352
1124.000977	7964.260254
1122.903320	8226.662109
1121.804688	8017.720703
1120.706055	8009.155273
1119.607422	8153.049316
1118.508789	8064.832031
1117.409180	7988.024902
1116.310547	8079.525879
1115.210938	8130.063965
1114.110352	7955.550293
1113.010742	7935.643555
1111.910156	8013.441895
1110.809570	8007.159180
1109.708984	8048.570313
1108.607422	7910.588867
1107.506836	8033.723633
1106.405273	7895.804688
1105.303711	7932.662598
1104.201172	7989.921387
1103.098633	8017.669434
1101.996094	7952.433594
1100.893555	7830.548340
1099.791016	7799.379395
1098.687500	7750.094238
1097.583984	7664.580078
1096.480469	7869.038086
1095.376953	7799.386230
1094.272461	7727.500000
1093.167969	7789.199219
1092.063477	7762.608398
1090.958008	7708.875977
1089.853516	7689.099121
1088.748047	7777.890625
1087.642578	7771.672852
1086.536133	7837.799316
1085.430664	7682.397461
1084.324219	7791.447266
1083.217773	7848.487305
1082.110352	7496.674316
1081.003906	7788.607422
1079.896484	7773.361328
1078.789063	7737.805664
1077.680664	7808.332520
1076.573242	7738.939941
1075.464844	7859.060547
1074.356445	7744.580566
1073.247070	7968.365723
1072.138672	7603.685547
1071.029297	7734.997070
1069.919922	7852.730957
1068.809570	7857.772461
1067.700195	7799.746094
1066.589844	7942.156738
1065.479492	7836.858398
1064.368164	7918.424316
1063.257813	7984.201660
1062.146484	7950.956055
1061.035156	7823.251465
1059.922852	7799.049805
1058.811523	7750.125977
1057.699219	7815.864746
1056.586914	7686.051758
1055.473633	7715.823730
1054.361328	7752.321289
1053.248047	7559.720215
1052.134766	7849.966309
1051.021484	7825.795898
1049.907227	7792.657227
1048.792969	7849.290039
1047.678711	7854.298340
1046.564453	7776.314453
1045.449219	7819.456543
1044.333984	7898.450684
1043.218750	7775.676758
1042.103516	7821.029785
1040.987305	7893.248047
1039.871094	7853.434082
1038.754883	7950.246582
1037.638672	7901.479980
1036.521484	7908.697266
1035.404297	7924.862793
1034.287109	8008.146484
1033.169922	7945.984863
1032.051758	8158.946289
1030.933594	8027.459473
1029.815430	7945.212402
1028.697266	8142.385742
1027.578125	8154.000488
1026.458984	8069.543945
1025.339844	8150.409668
1024.220703	8146.381348
1023.100586	8271.845703
1021.980469	8191.898926
1020.860352	8074.048828
1019.740234	8248.529297
1018.619141	8193.174805
1017.498047	8278.344727
1016.376953	8292.125977
1015.255859	8319.276367
1014.133789	8426.646484
1013.011719	8268.813477
1011.889648	8142.237305
1010.767578	8276.299805
1009.644531	8390.261719
1008.521484	8268.192383
1007.398438	8232.980469
1006.274414	8300.144531
1005.151367	8389.524414
1004.027344	8369.876953
1002.902344	8301.313477
1001.778320	8141.625977
1000.653320	8162.053711
999.528320	8093.580078
998.403320	8105.120605
997.278320	8118.876465
996.152344	8057.118164
995.026367	8166.351074
993.900391	8013.594727
992.773438	8002.943359
991.646484	8103.238281
990.519531	7950.595215
989.392578	8037.548340
988.265625	7916.029297
987.137695	7852.202637
986.009766	7967.931152
984.881836	7877.528809
983.752930	8021.999023
982.624023	8009.145508
981.495117	7876.717773
980.366211	7928.104980
979.236328	8021.523926
978.106445	8057.364258
976.976563	8024.601074
975.846680	7810.470215
974.715820	7797.678711
973.585938	7939.661621
972.454102	8010.844238
971.323242	7993.594727
970.191406	7989.608887
969.060547	7912.726563
967.927734	7948.512695
966.795898	8030.650879
965.663086	8117.167480
964.530273	8285.305664
963.397461	8276.842773
962.264648	8250.735352
961.130859	8423.140625
959.997070	8509.469727
958.863281	8492.143555
957.729492	8642.336914
956.594727	8539.044922
955.459961	8530.534180
954.325195	8411.893555
953.189453	8557.563477
952.053711	8276.045898
950.917969	8278.603516
949.782227	8221.741211
948.646484	7988.888184
947.509766	8004.704590
946.373047	7934.743652
945.235352	7935.172363
944.098633	7964.177246
942.960938	7863.501953
941.823242	7677.178223
940.685547	7980.813477
939.546875	7983.423828
938.408203	7834.524414
937.269531	8014.982910
936.129883	7852.972656
934.991211	8064.065430
933.851563	7981.092285
932.711914	8088.974609
931.571289	8030.152832
930.431641	7940.664063
929.291016	7965.190430
928.149414	7991.896484
927.008789	8040.499023
925.867188	8056.223145
924.725586	8085.078613
923.583984	8065.753906
922.441406	8028.925781
921.299805	7893.634277
920.157227	8034.082520
919.013672	7745.728027
917.871094	7700.254395
916.727539	7770.682129
915.583984	7589.691406
914.439453	7448.119629
913.295898	7719.573730
912.151367	7606.433594
911.006836	7751.056641
909.861328	7701.280762
908.716797	7640.611328
907.571289	7641.079590
906.424805	7582.631836
905.279297	7637.650879
904.132813	7594.496094
902.986328	7601.513184
901.839844	7689.190430
900.692383	7759.390137
899.545898	7812.125488
898.398438	7701.438965
897.250000	7619.117676
896.102539	7573.852539
894.954102	7831.231934
893.805664	7590.037598
892.656250	7590.507324
891.507813	7658.422363
890.358398	7676.276855
889.208984	7587.561523
888.058594	7514.104980
886.908203	7542.846680
885.758789	7478.125000
884.607422	7602.460938
883.457031	7563.821289
882.305664	7518.682129
881.154297	7512.646484
880.002930	7597.786133
878.850586	7383.384277
877.698242	7477.192383
876.545898	7590.481934
875.393555	7495.510742
874.240234	7472.137695
873.086914	7392.409668
871.933594	7436.257813
870.780273	7443.248047
869.625977	7387.409180
868.471680	7385.742188
867.317383	7477.188477
866.162109	7427.872559
865.007813	7317.974121
863.852539	7340.125488
862.696289	7353.612305
861.541016	7462.263184
860.384766	7458.415039
859.228516	7478.350098
858.072266	7346.970215
856.915039	7516.030273
855.757813	7460.318359
854.600586	7545.033691
853.442383	7398.637695
852.285156	7453.100586
851.126953	7578.770996
849.968750	7546.843262
848.809570	7379.000488
847.650391	7478.715332
846.491211	7522.312012
845.332031	7317.932617
844.171875	7327.054199
843.012695	7422.377930
841.851563	7334.510254
840.691406	7233.756348
839.530273	7389.337891
838.369141	7486.711426
837.208008	7413.975586
836.046875	7427.360840
834.884766	7408.463379
833.722656	7445.506836
832.560547	7430.914063
831.397461	7319.564941
830.234375	7390.998047
829.071289	7428.008789
827.908203	7260.864746
826.744141	7321.519043
825.580078	7319.857422
824.416016	7369.732910
823.251953	7256.422852
822.086914	7344.923340
820.921875	7386.173828
819.756836	7412.386719
818.590820	7297.022461
817.425781	7258.909180
816.259766	7405.192383
815.092773	7403.509766
813.926758	7262.534180
812.759766	7346.583008
811.592773	7306.356934
810.424805	7302.554199
809.257813	7365.124512
808.089844	7294.952148
806.920898	7229.091309
805.752930	7443.542480
804.583984	7313.504395
803.415039	7292.592773
802.246094	7290.933105
801.076172	7255.071777
799.906250	7135.877930
798.736328	7268.861816
797.566406	7344.108398
796.395508	7316.807617
795.224609	7257.491211
794.053711	7479.980957
792.881836	7559.376465
791.710938	7564.055176
790.538086	7703.125000
789.366211	7643.785156
788.194336	7520.503418
787.021484	7631.772949
785.848633	7595.931641
784.674805	7464.220215
783.500977	7362.392578
782.327148	7456.555664
781.153320	7250.436523
779.979492	7463.797363
778.804688	7270.540039
777.629883	7400.810059
776.454102	7407.629883
775.279297	7425.081055
774.103516	7442.523438
772.927734	7370.667480
771.750977	7286.090820
770.575195	7516.049316
769.398438	7512.207520
768.220703	7417.034668
767.043945	7425.957520
765.866211	7277.770508
764.688477	7505.342285
763.510742	7242.612305
762.332031	7389.467285
761.153320	7440.804688
759.974609	7377.605469
758.794922	7486.164551
757.616211	7692.176758
756.436523	7751.872559
755.255859	7692.894531
754.076172	7771.625000
752.895508	8085.383789
751.714844	8163.987305
750.533203	8401.308594
749.352539	8575.034180
748.170898	8729.636719
746.988281	9178.191406
745.806641	9552.522461
744.624023	10243.828125
743.441406	11275.141602
742.258789	12388.401367
741.075195	14054.718750
739.891602	16089.936523
738.708008	18571.939453
737.523438	20790.990234
736.339844	22749.378906
735.155273	24371.308594
733.969727	25241.349609
732.785156	25239.779297
731.599609	24268.074219
730.414063	22533.537109
729.227539	20529.968750
728.041992	18234.369141
726.855469	15935.609375
725.667969	14059.215820
724.481445	12522.760742
723.293945	11389.179688
722.106445	10563.465820
720.918945	9929.650391
719.730469	9386.604492
718.541992	9056.276367
717.353516	8644.076172
716.164063	8404.485352
714.975586	8024.155762
713.786133	8020.209961
712.595703	7703.179688
711.406250	7798.044434
