#Wave		#Intensity
1585.210938	10427.671875
1584.209961	10545.060547
1583.208984	10398.042969
1582.208008	10600.610352
1581.206055	10508.554688
1580.204102	10424.023438
1579.202148	10708.795898
1578.200195	10462.112305
1577.198242	10360.184570
1576.195313	10280.739258
1575.192383	10547.853516
1574.189453	10570.592773
1573.186523	10386.490234
1572.182617	10451.608398
1571.178711	10352.297852
1570.174805	10240.575195
1569.170898	10218.535156
1568.166992	10395.654297
1567.162109	10259.102539
1566.158203	10306.745117
1565.153320	10394.172852
1564.147461	10193.035156
1563.142578	10384.894531
1562.136719	10211.190430
1561.130859	10144.446289
1560.125000	10366.018555
1559.119141	10105.458984
1558.113281	10282.230469
1557.106445	10384.417969
1556.099609	10446.831055
1555.092773	10506.735352
1554.084961	10536.828125
1553.078125	10544.573242
1552.070313	10522.540039
1551.062500	10815.556641
1550.054688	10805.876953
1549.045898	10639.986328
1548.038086	10717.114258
1547.029297	11118.903320
1546.020508	11086.864258
1545.011719	11196.059570
1544.001953	11434.013672
1542.992188	11483.653320
1541.982422	11746.209961
1540.972656	11788.336914
1539.962891	11882.420898
1538.952148	11912.128906
1537.942383	12144.688477
1536.931641	12273.267578
1535.919922	12156.970703
1534.909180	12109.950195
1533.897461	11939.352539
1532.886719	11872.624023
1531.874023	11719.441406
1530.862305	11793.597656
1529.850586	11425.614258
1528.837891	11484.983398
1527.825195	11327.067383
1526.812500	10897.700195
1525.799805	11142.226563
1524.786133	11110.311523
1523.772461	10816.927734
1522.758789	10622.317383
1521.745117	10615.186523
1520.731445	10612.988281
1519.716797	10660.085938
1518.702148	10564.237305
1517.687500	10525.092773
1516.672852	10365.266602
1515.657227	10454.241211
1514.642578	10397.907227
1513.626953	10444.988281
1512.610352	10332.071289
1511.594727	10467.729492
1510.579102	10428.659180
1509.562500	10433.877930
1508.545898	10601.398438
1507.529297	10284.496094
1506.511719	10245.494141
1505.494141	10666.083008
1504.477539	10479.589844
1503.458984	10600.250000
1502.441406	10428.583008
1501.423828	10318.376953
1500.405273	10370.250977
1499.386719	10360.738281
1498.368164	10552.462891
1497.348633	10523.287109
1496.330078	10418.079102
1495.310547	10636.648438
1494.291016	10475.063477
1493.271484	10612.628906
1492.250977	10600.625977
1491.231445	10581.275391
1490.210938	10601.132813
1489.190430	10442.167969
1488.168945	10364.085938
1487.148438	10354.591797
1486.126953	10567.867188
1485.105469	10607.283203
1484.083984	10548.804688
1483.061523	10749.672852
1482.040039	10678.958008
1481.017578	10588.708984
1479.995117	10887.238281
1478.971680	10858.092773
1477.949219	10868.060547
1476.925781	10853.590820
1475.902344	11124.944336
1474.878906	11210.562500
1473.855469	11105.678711
1472.831055	11186.382813
1471.806641	11508.698242
1470.782227	11286.677734
1469.757813	11396.570313
1468.733398	11721.079102
1467.708008	11799.129883
1466.682617	11833.256836
1465.657227	12111.152344
1464.631836	12186.633789
1463.605469	12298.635742
1462.579102	12508.043945
1461.552734	12727.106445
1460.526367	12987.478516
1459.500000	13291.567383
1458.472656	13242.556641
1457.445313	13580.539063
1456.417969	13460.921875
1455.390625	13518.947266
1454.362305	13662.077148
1453.334961	13598.446289
1452.306641	13437.590820
1451.277344	13449.384766
1450.249023	13140.379883
1449.219727	13176.527344
1448.191406	13008.601563
1447.162109	12580.871094
1446.131836	12442.276367
1445.102539	12393.564453
1444.072266	12303.610352
1443.041992	11903.071289
1442.011719	11983.089844
1440.981445	11902.976563
1439.950195	11599.777344
1438.918945	11670.108398
1437.887695	11801.013672
1436.856445	11551.343750
1435.825195	11461.708008
1434.792969	11238.860352
1433.760742	11420.610352
1432.728516	11219.657227
1431.696289	11142.267578
1430.663086	11168.999023
1429.629883	11043.248047
1428.596680	10963.521484
1427.563477	10920.115234
1426.530273	10888.820313
1425.496094	10980.863281
1424.461914	10729.560547
1423.427734	10768.419922
1422.393555	10671.929688
1421.358398	10621.385742
1420.323242	10580.525391
1419.288086	10812.591797
1418.252930	10704.096680
1417.217773	10576.333984
1416.181641	10651.368164
1415.145508	10704.652344
1414.109375	10637.283203
1413.073242	10697.783203
1412.036133	10423.041992
1411.000000	10642.694336
1409.962891	10674.226563
1408.924805	10616.570313
1407.887695	10811.947266
1406.849609	10973.513672
1405.812500	10985.678711
1404.773438	11098.979492
1403.735352	11267.606445
1402.697266	11457.826172
1401.658203	11383.240234
1400.619141	11409.740234
1399.580078	11551.697266
1398.540039	11602.201172
1397.500977	11510.811523
1396.460938	11542.069336
1395.420898	11703.106445
1394.380859	11662.215820
1393.339844	11777.509766
1392.298828	11623.720703
1391.257813	11604.484375
1390.216797	11702.909180
1389.175781	11455.606445
1388.133789	11515.618164
1387.091797	11494.017578
1386.049805	11865.875977
1385.007813	11935.356445
1383.964844	11964.039063
1382.922852	12021.480469
1381.879883	12198.750977
1380.835938	12167.444336
1379.792969	12366.173828
1378.749023	12119.241211
1377.706055	12332.266602
1376.661133	12243.485352
1375.617188	12451.605469
1374.573242	12145.018555
1373.528320	12259.741211
1372.483398	12127.979492
1371.438477	12170.893555
1370.392578	12132.474609
1369.347656	12218.407227
1368.301758	12089.151367
1367.255859	12043.601563
1366.208984	12368.455078
1365.163086	11899.997070
1364.116211	11976.330078
1363.069336	12105.168945
1362.022461	12112.185547
1360.974609	12248.101563
1359.927734	12018.812500
1358.879883	12047.315430
1357.832031	12374.002930
1356.783203	12054.196289
1355.735352	12125.594727
1354.686523	12220.801758
1353.637695	12304.050781
1352.588867	12444.458984
1351.539063	12370.374023
1350.490234	12586.933594
1349.440430	12791.493164
1348.390625	12881.674805
1347.339844	13178.928711
1346.290039	13485.577148
1345.239258	13599.349609
1344.188477	13989.047852
1343.137695	13879.077148
1342.085938	14061.657227
1341.034180	14351.151367
1339.982422	14350.517578
1338.930664	14333.247070
1337.878906	14591.610352
1336.826172	14778.595703
1335.773438	14597.361328
1334.720703	14648.912109
1333.667969	14605.476563
1332.614258	14706.848633
1331.561523	14729.864258
1330.507813	14124.127930
1329.453125	14398.698242
1328.399414	14125.309570
1327.344727	14060.692383
1326.290039	13844.382813
1325.235352	13763.258789
1324.180664	13795.910156
1323.125000	13733.782227
1322.070313	13738.000000
1321.014648	13656.962891
1319.958008	13895.588867
1318.902344	13440.544922
1317.845703	13499.249023
1316.789063	13475.114258
1315.732422	13316.146484
1314.675781	13100.482422
1313.618164	12998.410156
1312.560547	12886.922852
1311.502930	12685.664063
1310.445313	12678.266602
1309.386719	12441.694336
1308.329102	12429.625977
1307.270508	12075.121094
1306.210938	11777.432617
1305.152344	11867.016602
1304.092773	11368.882813
1303.033203	11578.855469
1301.973633	11449.020508
1300.914063	11498.497070
1299.853516	11144.705078
1298.792969	11347.472656
1297.732422	11147.076172
1296.671875	11069.311523
1295.611328	11283.744141
1294.549805	10892.675781
1293.488281	10963.387695
1292.426758	10984.620117
1291.364258	11182.407227
1290.302734	10850.529297
1289.240234	11012.961914
1288.177734	11069.453125
1287.114258	10949.504883
1286.051758	10914.268555
1284.988281	11001.307617
1283.924805	10662.831055
1282.861328	10869.747070
1281.796875	10869.798828
1280.732422	10858.104492
1279.667969	10982.639648
1278.603516	11006.147461
1277.539063	11034.339844
1276.473633	10900.560547
1275.408203	11008.550781
1274.342773	11027.337891
1273.277344	10992.163086
1272.210938	10994.527344
1271.145508	10994.544922
1270.079102	10790.610352
1269.011719	10844.576172
1267.945313	10795.414063
1266.877930	10896.208984
1265.810547	10907.954102
1264.743164	10626.971680
1263.674805	10570.870117
1262.607422	10601.400391
1261.539063	10409.589844
1260.470703	10440.139648
1259.401367	10285.872070
1258.333008	10377.242188
1257.263672	10220.712891
1256.194336	10377.515625
1255.125000	10176.641602
1254.054688	10251.597656
1252.985352	10111.578125
1251.915039	10055.708008
1250.843750	10095.608398
1249.773438	10126.152344
1248.702148	10163.685547
1247.630859	9988.822266
1246.559570	9886.367188
1245.488281	9800.283203
1244.416016	9774.876953
1243.343750	9933.697266
1242.271484	9808.023438
1241.199219	9749.997070
1240.125977	9675.682617
1239.053711	9908.941406
1237.980469	9995.349609
1236.906250	9853.490234
1235.833008	9800.168945
1234.758789	9725.918945
1233.684570	9658.681641
1232.610352	9710.143555
1231.536133	9898.840820
1230.460938	9671.120117
1229.385742	9776.029297
1228.310547	9736.748047
1227.235352	9874.138672
1226.159180	9865.062500
1225.083008	9728.200195
1224.006836	9867.826172
1222.930664	9728.698242
1221.853516	9812.535156
1220.777344	9736.156250
1219.700195	9817.632813
1218.622070	10068.468750
1217.544922	9834.323242
1216.466797	9809.030273
1215.388672	9790.703125
1214.310547	9760.791016
1213.232422	9958.053711
1212.153320	9962.878906
1211.074219	10206.352539
1209.995117	10241.235352
1208.916016	10183.462891
1207.835938	10232.228516
1206.755859	10206.890625
1205.675781	10190.821289
1204.595703	9978.066406
1203.514648	9929.662109
1202.434570	10066.320313
1201.353516	9918.476563
1200.271484	10172.991211
1199.190430	9985.889648
1198.108398	10120.104492
1197.026367	10173.391602
1195.944336	10245.135742
1194.862305	9958.864258
1193.779297	9818.186523
1192.696289	9933.821289
1191.613281	9825.520508
1190.530273	9793.416016
1189.446289	9839.766602
1188.362305	9726.940430
1187.278320	9627.998047
1186.194336	9616.710938
1185.109375	9667.666016
1184.024414	9626.413086
1182.939453	9499.924805
1181.854492	9516.315430
1180.768555	9525.788086
1179.683594	9475.387695
1178.597656	9300.692383
1177.510742	9473.621094
1176.424805	9282.890625
1175.337891	9262.491211
1174.250977	9439.914063
1173.164063	9207.917969
1172.077148	9268.016602
1170.989258	9102.817383
1169.901367	9236.454102
1168.813477	9287.314453
1167.724609	9305.992188
1166.636719	9207.527344
1165.547852	9138.956055
1164.458984	9263.254883
1163.369141	9304.870117
1162.280273	9263.856445
1161.190430	9316.923828
1160.100586	9301.154297
1159.010742	9347.309570
1157.919922	9228.365234
1156.829102	9224.083984
1155.738281	9483.358398
1154.647461	9304.885742
1153.555664	9456.362305
1152.464844	9371.873047
1151.373047	9367.562500
1150.280273	9347.227539
1149.188477	9308.589844
1148.095703	9306.581055
1147.002930	9341.177734
1145.910156	9355.172852
1144.817383	9330.284180
1143.723633	9268.825195
1142.629883	9301.110352
1141.536133	9187.119141
1140.441406	9066.321289
1139.347656	9130.609375
1138.252930	9224.558594
1137.158203	9117.529297
1136.062500	9186.327148
1134.967773	9152.386719
1133.872070	9278.193359
1132.776367	9237.403320
1131.679688	9130.482422
1130.583984	9130.787109
1129.487305	9192.648438
1128.390625	9336.541992
1127.292969	9309.452148
1126.196289	9138.831055
1125.098633	9417.039063
1124.000977	9358.063477
1122.903320	9205.755859
1121.804688	9121.807617
1120.706055	9192.662109
1119.607422	9158.812500
1118.508789	9261.475586
1117.409180	9120.722656
1116.310547	9221.074219
1115.210938	9155.416016
1114.110352	9142.064453
1113.010742	9158.259766
1111.910156	9278.961914
1110.809570	9176.999023
1109.708984	9327.166016
1108.607422	9195.719727
1107.506836	9182.371094
1106.405273	9250.732422
1105.303711	9180.650391
1104.201172	9078.837891
1103.098633	9049.646484
1101.996094	8961.510742
1100.893555	9038.910156
1099.791016	9070.943359
1098.687500	8912.608398
1097.583984	9082.855469
1096.480469	9096.735352
1095.376953	9060.785156
1094.272461	8943.341797
1093.167969	8950.449219
1092.063477	8882.868164
1090.958008	8910.347656
1089.853516	8919.716797
1088.748047	9110.015625
1087.642578	8956.531250
1086.536133	9106.043945
1085.430664	9128.920898
1084.324219	9398.094727
1083.217773	9127.198242
1082.110352	9267.506836
1081.003906	9306.132813
1079.896484	9441.823242
1078.789063	9448.791016
1077.680664	9376.769531
1076.573242	9338.622070
1075.464844	9214.771484
1074.356445	9293.948242
1073.247070	9413.674805
1072.138672	9287.632813
1071.029297	9398.291992
1069.919922	9290.333008
1068.809570	9240.992188
1067.700195	9191.672852
1066.589844	9250.461914
1065.479492	9322.731445
1064.368164	9091.107422
1063.257813	9125.123047
1062.146484	9136.625000
1061.035156	9251.590820
1059.922852	9195.592773
1058.811523	8890.048828
1057.699219	8890.349609
1056.586914	8829.969727
1055.473633	8971.835938
1054.361328	9012.550781
1053.248047	8954.427734
1052.134766	9080.453125
1051.021484	8950.500977
1049.907227	8813.872070
1048.792969	8903.940430
1047.678711	8868.334961
1046.564453	8866.388672
1045.449219	8936.201172
1044.333984	8763.850586
1043.218750	8882.965820
1042.103516	8910.147461
1040.987305	8724.469727
1039.871094	8937.593750
1038.754883	8857.247070
1037.638672	8783.651367
1036.521484	8754.858398
1035.404297	8755.171875
1034.287109	8831.560547
1033.169922	8831.854492
1032.051758	8789.654297
1030.933594	8740.762695
1029.815430	8808.141602
1028.697266	8839.729492
1027.578125	8873.537109
1026.458984	8882.753906
1025.339844	8746.781250
1024.220703	8697.958984
1023.100586	8876.884766
1021.980469	8836.983398
1020.860352	8919.837891
1019.740234	8920.102539
1018.619141	8848.986328
1017.498047	8864.875977
1016.376953	8854.001953
1015.255859	8811.923828
1014.133789	8769.863281
1013.011719	8705.539063
1011.889648	8826.140625
1010.767578	8806.375000
1009.644531	8835.604492
1008.521484	8844.784180
1007.398438	8842.831055
1006.274414	8916.535156
1005.151367	8725.461914
1004.027344	8828.073242
1002.902344	8835.017578
1001.778320	8881.976563
1000.653320	8815.551758
999.528320	8931.382813
998.403320	8876.084961
997.278320	8936.317383
996.152344	8716.700195
995.026367	8699.228516
993.900391	8899.307617
992.773438	9032.716797
991.646484	8906.461914
990.519531	8880.086914
989.392578	8858.159180
988.265625	8794.110352
987.137695	8827.631836
986.009766	8838.973633
984.881836	8854.741211
983.752930	8983.487305
982.624023	8788.796875
981.495117	8888.710938
980.366211	8826.962891
979.236328	9026.427734
978.106445	8805.342773
976.976563	8874.186523
975.846680	8772.677734
974.715820	8746.403320
973.585938	8824.056641
972.454102	8696.098633
971.323242	8744.997070
970.191406	8603.854492
969.060547	8612.987305
967.927734	8690.580078
966.795898	8591.494141
965.663086	8832.414063
964.530273	8731.131836
963.397461	8749.048828
962.264648	8806.666992
961.130859	8846.613281
959.997070	8919.618164
958.863281	8981.565430
957.729492	9003.811523
956.594727	8986.380859
955.459961	8935.911133
954.325195	8845.814453
953.189453	8905.503906
952.053711	8793.436523
950.917969	8892.730469
949.782227	8708.091797
948.646484	8626.943359
947.509766	8680.011719
946.373047	8642.888672
945.235352	8596.986328
944.098633	8599.464844
942.960938	8654.686523
941.823242	8523.118164
940.685547	8497.050781
939.546875	8802.630859
938.408203	8596.458008
937.269531	8864.558594
936.129883	8432.398438
934.991211	8792.574219
933.851563	8852.036133
932.711914	8880.764648
931.571289	8819.572266
930.431641	8938.179688
929.291016	8791.518555
928.149414	9054.707031
927.008789	9131.552734
925.867188	8936.755859
924.725586	9085.859375
923.583984	9022.522461
922.441406	9068.658203
921.299805	8882.800781
920.157227	8998.959961
919.013672	8918.196289
917.871094	8675.633789
916.727539	8831.115234
915.583984	8783.231445
914.439453	8532.118164
913.295898	8501.800781
912.151367	8591.643555
911.006836	8653.053711
909.861328	8513.550781
908.716797	8476.712891
907.571289	8483.541016
906.424805	8507.822266
905.279297	8457.917969
904.132813	8597.789063
902.986328	8526.081055
901.839844	8419.521484
900.692383	8526.611328
899.545898	8492.008789
898.398438	8616.461914
897.250000	8509.974609
896.102539	8630.010742
894.954102	8501.795898
893.805664	8619.601563
892.656250	8585.020508
891.507813	8593.968750
890.358398	8600.736328
889.208984	8537.909180
888.058594	8585.996094
886.908203	8362.342773
885.758789	8482.162109
884.607422	8382.479492
883.457031	8387.108398
882.305664	8428.655273
881.154297	8392.016602
880.002930	8403.151367
878.850586	8453.345703
877.698242	8299.553711
876.545898	8449.536133
875.393555	8367.384766
874.240234	8415.370117
873.086914	8328.926758
871.933594	8470.094727
870.780273	8442.181641
869.625977	8433.778320
868.471680	8280.261719
867.317383	8525.250977
866.162109	8339.307617
865.007813	8363.398438
863.852539	8465.379883
862.696289	8396.401367
861.541016	8498.328125
860.384766	8252.047852
859.228516	8440.439453
858.072266	8293.710938
856.915039	8373.956055
855.757813	8467.125977
854.600586	8385.291016
853.442383	8528.084961
852.285156	8364.226563
851.126953	8506.959961
849.968750	8455.399414
848.809570	8412.492188
847.650391	8393.332031
846.491211	8376.335938
845.332031	8493.028320
844.171875	8331.586914
843.012695	8299.528320
841.851563	8342.897461
840.691406	8151.439453
839.530273	8377.885742
838.369141	8339.382813
837.208008	8283.674805
836.046875	8318.385742
834.884766	8363.838867
833.722656	8471.657227
832.560547	8349.292969
831.397461	8491.468750
830.234375	8199.321289
829.071289	8420.989258
827.908203	8397.590820
826.744141	8326.938477
825.580078	8316.458008
824.416016	8299.539063
823.251953	8113.023926
822.086914	8297.917969
820.921875	8223.073242
819.756836	8429.310547
818.590820	8262.237305
817.425781	8232.482422
816.259766	8282.066406
815.092773	8290.902344
813.926758	8319.019531
812.759766	8299.989258
811.592773	8418.053711
810.424805	8373.309570
809.257813	8324.303711
808.089844	8294.583008
806.920898	8329.077148
805.752930	8280.112305
804.583984	8271.810547
803.415039	8316.977539
802.246094	8199.626953
801.076172	8120.806641
799.906250	8223.677734
798.736328	8164.115723
797.566406	8063.993164
796.395508	8060.020996
795.224609	8132.916504
794.053711	8267.684570
792.881836	8261.532227
791.710938	8142.294922
790.538086	8174.570801
789.366211	8298.540039
788.194336	8268.928711
787.021484	8401.345703
785.848633	8420.742188
784.674805	8403.906250
783.500977	8559.633789
782.327148	8317.008789
781.153320	8330.016602
779.979492	8417.528320
778.804688	8398.580078
777.629883	8434.965820
776.454102	8450.059570
775.279297	8326.895508
774.103516	8329.247070
772.927734	8229.550781
771.750977	8234.047852
770.575195	8215.166992
769.398438	8213.290039
768.220703	8192.297852
767.043945	8260.501953
765.866211	8303.197266
764.688477	8426.530273
763.510742	8437.335938
762.332031	8473.594727
761.153320	8592.559570
759.974609	8601.198242
758.794922	8809.123047
757.616211	8857.979492
756.436523	9267.068359
755.255859	9313.677734
754.076172	9796.611328
752.895508	10200.967773
751.714844	10950.244141
750.533203	11354.149414
749.352539	12071.074219
748.170898	12669.186523
746.988281	13307.214844
745.806641	13894.193359
744.624023	14041.126953
743.441406	14006.203125
742.258789	14144.586914
741.075195	13862.449219
739.891602	13950.103516
738.708008	14098.961914
737.523438	14338.541016
736.339844	14685.666992
735.155273	14739.281250
733.969727	14750.670898
732.785156	14926.591797
731.599609	14718.596680
730.414063	14230.265625
729.227539	13796.964844
728.041992	12830.657227
726.855469	12307.271484
725.667969	11508.165039
724.481445	10867.380859
723.293945	10321.641602
722.106445	10030.871094
720.918945	9706.559570
