#Wave		#Intensity
1585.210938	22274.005859
1584.209961	22563.732422
1583.208984	22389.253906
1582.208008	22432.050781
1581.206055	22562.191406
1580.204102	22300.472656
1579.202148	22458.031250
1578.200195	22186.462891
1577.198242	21703.015625
1576.195313	21965.324219
1575.192383	22065.480469
1574.189453	21996.105469
1573.186523	21794.685547
1572.182617	21737.851563
1571.178711	21800.603516
1570.174805	21669.078125
1569.170898	21609.812500
1568.166992	21630.230469
1567.162109	21638.195313
1566.158203	21576.482422
1565.153320	21109.277344
1564.147461	21301.402344
1563.142578	21329.320313
1562.136719	21414.410156
1561.130859	21618.781250
1560.125000	21574.541016
1559.119141	21433.412109
1558.113281	21540.763672
1557.106445	21829.382813
1556.099609	21757.816406
1555.092773	22056.199219
1554.084961	22312.259766
1553.078125	22513.619141
1552.070313	22590.833984
1551.062500	22747.398438
1550.054688	22814.611328
1549.045898	22973.542969
1548.038086	23387.751953
1547.029297	23737.347656
1546.020508	23799.339844
1545.011719	24391.503906
1544.001953	24978.464844
1542.992188	25347.250000
1541.982422	26062.521484
1540.972656	26220.507813
1539.962891	26306.654297
1538.952148	26707.021484
1537.942383	26894.462891
1536.931641	26686.070313
1535.919922	26470.345703
1534.909180	26383.275391
1533.897461	26563.207031
1532.886719	25890.427734
1531.874023	25351.353516
1530.862305	25504.208984
1529.850586	24977.787109
1528.837891	24629.375000
1527.825195	24219.384766
1526.812500	23737.980469
1525.799805	23493.685547
1524.786133	23173.005859
1523.772461	22734.050781
1522.758789	22450.652344
1521.745117	22317.783203
1520.731445	22187.431641
1519.716797	21933.896484
1518.702148	21855.427734
1517.687500	21804.089844
1516.672852	21629.613281
1515.657227	21765.507813
1514.642578	21768.386719
1513.626953	21682.642578
1512.610352	21801.212891
1511.594727	21558.011719
1510.579102	21248.484375
1509.562500	21736.015625
1508.545898	21633.148438
1507.529297	21633.583984
1506.511719	21511.113281
1505.494141	21482.082031
1504.477539	21681.572266
1503.458984	21760.605469
1502.441406	21621.011719
1501.423828	21488.841797
1500.405273	21553.132813
1499.386719	21445.576172
1498.368164	21782.246094
1497.348633	21264.941406
1496.330078	21586.791016
1495.310547	21432.712891
1494.291016	21565.585938
1493.271484	21492.474609
1492.250977	21522.333984
1491.231445	21383.095703
1490.210938	21706.964844
1489.190430	21379.132813
1488.168945	21766.539063
1487.148438	21788.960938
1486.126953	21625.326172
1485.105469	21684.478516
1484.083984	21687.324219
1483.061523	21531.148438
1482.040039	21715.023438
1481.017578	21874.365234
1479.995117	22317.250000
1478.971680	21967.960938
1477.949219	22256.673828
1476.925781	22278.937500
1475.902344	22714.037109
1474.878906	22804.580078
1473.855469	22997.644531
1472.831055	23139.357422
1471.806641	23481.160156
1470.782227	23703.244141
1469.757813	24218.017578
1468.733398	24430.095703
1467.708008	25095.708984
1466.682617	25392.857422
1465.657227	25936.101563
1464.631836	26413.310547
1463.605469	26705.123047
1462.579102	27262.369141
1461.552734	27928.996094
1460.526367	28875.404297
1459.500000	29146.978516
1458.472656	29912.599609
1457.445313	29699.517578
1456.417969	30406.304688
1455.390625	30164.013672
1454.362305	30206.396484
1453.334961	29815.906250
1452.306641	29620.076172
1451.277344	29011.097656
1450.249023	28574.919922
1449.219727	27876.505859
1448.191406	27341.142578
1447.162109	26669.988281
1446.131836	26045.248047
1445.102539	25855.330078
1444.072266	25206.744141
1443.041992	24572.986328
1442.011719	24269.457031
1440.981445	24019.416016
1439.950195	23565.761719
1438.918945	23570.562500
1437.887695	23119.611328
1436.856445	23296.583984
1435.825195	22603.552734
1434.792969	22795.093750
1433.760742	22567.513672
1432.728516	22366.664063
1431.696289	22090.841797
1430.663086	22144.343750
1429.629883	21825.117188
1428.596680	21844.775391
1427.563477	21750.722656
1426.530273	21364.048828
1425.496094	21608.675781
1424.461914	21413.185547
1423.427734	21348.300781
1422.393555	21404.275391
1421.358398	20890.013672
1420.323242	20830.107422
1419.288086	20953.773438
1418.252930	20657.242188
1417.217773	21017.476563
1416.181641	20750.013672
1415.145508	20784.304688
1414.109375	21059.841797
1413.073242	20669.515625
1412.036133	20985.957031
1411.000000	21020.166016
1409.962891	21283.365234
1408.924805	21105.404297
1407.887695	21250.402344
1406.849609	21344.750000
1405.812500	21925.593750
1404.773438	22311.138672
1403.735352	22388.349609
1402.697266	22951.759766
1401.658203	22946.974609
1400.619141	22973.470703
1399.580078	23401.689453
1398.540039	23300.607422
1397.500977	23521.781250
1396.460938	23613.039063
1395.420898	23723.486328
1394.380859	23504.664063
1393.339844	23694.371094
1392.298828	23631.777344
1391.257813	23763.736328
1390.216797	23292.966797
1389.175781	23182.480469
1388.133789	23547.255859
1387.091797	23261.587891
1386.049805	23681.371094
1385.007813	23659.636719
1383.964844	24040.789063
1382.922852	23896.708984
1381.879883	24296.826172
1380.835938	24473.890625
1379.792969	24504.720703
1378.749023	24842.169922
1377.706055	25327.970703
1376.661133	25131.111328
1375.617188	25231.199219
1374.573242	25482.039063
1373.528320	25873.964844
1372.483398	26081.496094
1371.438477	26387.013672
1370.392578	26493.900391
1369.347656	26526.617188
1368.301758	26473.257813
1367.255859	26336.267578
1366.208984	27059.580078
1365.163086	26535.488281
1364.116211	26465.445313
1363.069336	26615.132813
1362.022461	26382.742188
1360.974609	26179.093750
1359.927734	26345.447266
1358.879883	26258.804688
1357.832031	26217.523438
1356.783203	26312.207031
1355.735352	25872.703125
1354.686523	26482.378906
1353.637695	26319.513672
1352.588867	26714.359375
1351.539063	26489.564453
1350.490234	27160.525391
1349.440430	27507.308594
1348.390625	28094.433594
1347.339844	28681.310547
1346.290039	28634.835938
1345.239258	29352.226563
1344.188477	29688.660156
1343.137695	30179.560547
1342.085938	30513.296875
1341.034180	30682.837891
1339.982422	31301.576172
1338.930664	31613.472656
1337.878906	31340.716797
1336.826172	31391.152344
1335.773438	31766.955078
1334.720703	31579.816406
1333.667969	31580.308594
1332.614258	31528.578125
1331.561523	31324.988281
1330.507813	31306.546875
1329.453125	30614.431641
1328.399414	30567.681641
1327.344727	30224.560547
1326.290039	29947.958984
1325.235352	29797.087891
1324.180664	29570.451172
1323.125000	29365.228516
1322.070313	29695.398438
1321.014648	29641.791016
1319.958008	29727.894531
1318.902344	29832.896484
1317.845703	29982.818359
1316.789063	29808.513672
1315.732422	30135.794922
1314.675781	29516.882813
1313.618164	29174.892578
1312.560547	29102.554688
1311.502930	28432.244141
1310.445313	27918.181641
1309.386719	27763.455078
1308.329102	27178.880859
1307.270508	26707.910156
1306.210938	26298.525391
1305.152344	26123.017578
1304.092773	25284.376953
1303.033203	24769.359375
1301.973633	24039.875000
1300.914063	23782.429688
1299.853516	23694.878906
1298.792969	23296.150391
1297.732422	23013.089844
1296.671875	23027.089844
1295.611328	22956.257813
1294.549805	22494.412109
1293.488281	22473.177734
1292.426758	22501.400391
1291.364258	22548.441406
1290.302734	22402.458984
1289.240234	22489.503906
1288.177734	22402.410156
1287.114258	22357.689453
1286.051758	22148.369141
1284.988281	22150.742188
1283.924805	22082.591797
1282.861328	22216.587891
1281.796875	21779.542969
1280.732422	22019.257813
1279.667969	22033.392578
1278.603516	21667.105469
1277.539063	22000.595703
1276.473633	21751.830078
1275.408203	22061.689453
1274.342773	21937.363281
1273.277344	21899.880859
1272.210938	22040.650391
1271.145508	22150.876953
1270.079102	22043.039063
1269.011719	21951.652344
1267.945313	21684.558594
1266.877930	21792.417969
1265.810547	21626.183594
1264.743164	21331.220703
1263.674805	21462.494141
1262.607422	21237.912109
1261.539063	20933.853516
1260.470703	20716.494141
1259.401367	20604.494141
1258.333008	20366.244141
1257.263672	20109.386719
1256.194336	20285.132813
1255.125000	19995.675781
1254.054688	20014.800781
1252.985352	19772.248047
1251.915039	19735.349609
1250.843750	19420.560547
1249.773438	19754.986328
1248.702148	19367.960938
1247.630859	19037.109375
1246.559570	19028.398438
1245.488281	19133.998047
1244.416016	19134.595703
1243.343750	18915.998047
1242.271484	18769.763672
1241.199219	18707.501953
1240.125977	18698.863281
1239.053711	18930.203125
1237.980469	18679.261719
1236.906250	18903.517578
1235.833008	18836.628906
1234.758789	18685.962891
1233.684570	18686.640625
1232.610352	18594.238281
1231.536133	18985.767578
1230.460938	18749.134766
1229.385742	18847.458984
1228.310547	18971.314453
1227.235352	19043.976563
1226.159180	19116.607422
1225.083008	19203.146484
1224.006836	18922.625000
1222.930664	19246.052734
1221.853516	19195.509766
1220.777344	18919.806641
1219.700195	19191.964844
1218.622070	19171.626953
1217.544922	19176.814453
1216.466797	19186.638672
1215.388672	19145.439453
1214.310547	19514.626953
1213.232422	19389.925781
1212.153320	19490.070313
1211.074219	19736.142578
1209.995117	19729.609375
1208.916016	19748.554688
1207.835938	19982.830078
1206.755859	19777.152344
1205.675781	19763.666016
1204.595703	19958.447266
1203.514648	20007.388672
1202.434570	20037.804688
1201.353516	19603.386719
1200.271484	19754.099609
1199.190430	20052.683594
1198.108398	19851.953125
1197.026367	19147.603516
1195.944336	19381.439453
1194.862305	18963.876953
1193.779297	19329.267578
1192.696289	18847.250000
1191.613281	18843.210938
1190.530273	18733.023438
1189.446289	18832.828125
1188.362305	18459.734375
1187.278320	18711.753906
1186.194336	18569.404297
1185.109375	18694.509766
1184.024414	18439.294922
1182.939453	18138.105469
1181.854492	18023.638672
1180.768555	17695.027344
1179.683594	18096.494141
1178.597656	18067.285156
1177.510742	17844.748047
1176.424805	17744.265625
1175.337891	17788.767578
1174.250977	17826.349609
1173.164063	18011.091797
1172.077148	17894.560547
1170.989258	17759.687500
1169.901367	18100.599609
1168.813477	17880.722656
1167.724609	18085.921875
1166.636719	18020.021484
1165.547852	18160.804688
1164.458984	17888.296875
1163.369141	17923.466797
1162.280273	17839.291016
1161.190430	17837.744141
1160.100586	17749.035156
1159.010742	17772.730469
1157.919922	17821.634766
1156.829102	17845.302734
1155.738281	17736.035156
1154.647461	17855.941406
1153.555664	17808.566406
1152.464844	17687.921875
1151.373047	17752.800781
1150.280273	17737.525391
1149.188477	17591.792969
1148.095703	17450.697266
1147.002930	17536.156250
1145.910156	17555.244141
1144.817383	16972.884766
1143.723633	17321.316406
1142.629883	17265.001953
1141.536133	17215.564453
1140.441406	17348.937500
1139.347656	17011.669922
1138.252930	16882.380859
1137.158203	17109.351563
1136.062500	16792.898438
1134.967773	16992.400391
1133.872070	16808.455078
1132.776367	16943.984375
1131.679688	16995.060547
1130.583984	17027.869141
1129.487305	16887.388672
1128.390625	16924.761719
1127.292969	16766.128906
1126.196289	17156.669922
1125.098633	16834.041016
1124.000977	16987.537109
1122.903320	16983.857422
1121.804688	16998.388672
1120.706055	17003.806641
1119.607422	17050.181641
1118.508789	16998.708984
1117.409180	16794.867188
1116.310547	16904.923828
1115.210938	16817.136719
1114.110352	16831.671875
1113.010742	16712.121094
1111.910156	17010.671875
1110.809570	16732.123047
1109.708984	16916.986328
1108.607422	16702.150391
1107.506836	16675.822266
1106.405273	16624.537109
1105.303711	16645.884766
1104.201172	16866.855469
1103.098633	16978.861328
1101.996094	17074.943359
1100.893555	17297.939453
1099.791016	17072.050781
1098.687500	17462.638672
1097.583984	17612.900391
1096.480469	17144.716797
1095.376953	17419.535156
1094.272461	16996.876953
1093.167969	17038.449219
1092.063477	17064.160156
1090.958008	17076.281250
1089.853516	17090.658203
1088.748047	16946.708984
1087.642578	17006.328125
1086.536133	16826.287109
1085.430664	16985.353516
1084.324219	17124.009766
1083.217773	17102.201172
1082.110352	17240.769531
1081.003906	17173.777344
1079.896484	17687.048828
1078.789063	17744.134766
1077.680664	17735.746094
1076.573242	17801.818359
1075.464844	17827.253906
1074.356445	17744.425781
1073.247070	17634.576172
1072.138672	17700.603516
1071.029297	17608.837891
1069.919922	17131.796875
1068.809570	17105.523438
1067.700195	17052.232422
1066.589844	17014.724609
1065.479492	16761.105469
1064.368164	16489.589844
1063.257813	16420.720703
1062.146484	16304.634766
1061.035156	16267.324219
1059.922852	16481.902344
1058.811523	15983.651367
1057.699219	15757.610352
1056.586914	15796.858398
1055.473633	15687.792969
1054.361328	15704.572266
1053.248047	15710.113281
1052.134766	15672.988281
1051.021484	15633.631836
1049.907227	15648.159180
1048.792969	15460.723633
1047.678711	15643.537109
1046.564453	15319.361328
1045.449219	15726.369141
1044.333984	15503.204102
1043.218750	15571.527344
1042.103516	15675.674805
1040.987305	15605.016602
1039.871094	15637.428711
1038.754883	15560.088867
1037.638672	15254.401367
1036.521484	15571.157227
1035.404297	15587.875977
1034.287109	15362.931641
1033.169922	15538.516602
1032.051758	15528.388672
1030.933594	15422.113281
1029.815430	15767.468750
1028.697266	15562.840820
1027.578125	15586.230469
1026.458984	15777.164063
1025.339844	15534.694336
1024.220703	15495.542969
1023.100586	15710.925781
1021.980469	15548.983398
1020.860352	15572.335938
1019.740234	15633.606445
1018.619141	15581.085938
1017.498047	15441.610352
1016.376953	15556.376953
1015.255859	15470.465820
1014.133789	15582.944336
1013.011719	15706.512695
1011.889648	15814.430664
1010.767578	15732.987305
1009.644531	15843.076172
1008.521484	15523.454102
1007.398438	15551.185547
1006.274414	15476.541992
1005.151367	15524.291992
1004.027344	15647.643555
1002.902344	15526.325195
1001.778320	15747.443359
1000.653320	15519.460938
999.528320	15404.914063
998.403320	15441.499023
997.278320	15560.253906
996.152344	15439.108398
995.026367	15351.318359
993.900391	15876.241211
992.773438	15637.475586
991.646484	15616.261719
990.519531	15856.823242
989.392578	16026.303711
988.265625	15867.537109
987.137695	16092.359375
986.009766	15982.406250
984.881836	16078.579102
983.752930	16148.122070
982.624023	16095.813477
981.495117	16025.810547
980.366211	15986.832031
979.236328	15684.469727
978.106445	15833.682617
976.976563	15715.120117
975.846680	15671.816406
974.715820	15794.390625
973.585938	15784.250000
972.454102	15542.010742
971.323242	15370.596680
970.191406	15102.040039
969.060547	15321.794922
967.927734	15194.711914
966.795898	15103.011719
965.663086	15223.276367
964.530273	15248.582031
963.397461	15132.655273
962.264648	15217.532227
961.130859	15231.790039
959.997070	15321.014648
958.863281	15335.241211
957.729492	15184.151367
956.594727	15401.132813
955.459961	15316.186523
954.325195	15332.598633
953.189453	15258.713867
952.053711	15035.147461
950.917969	15049.405273
949.782227	15068.057617
948.646484	14763.272461
947.509766	14830.370117
946.373047	14954.617188
945.235352	14935.889648
944.098633	15119.406250
942.960938	14885.270508
941.823242	14919.301758
940.685547	14863.249023
939.546875	15026.846680
938.408203	15214.523438
937.269531	15279.178711
936.129883	15427.206055
934.991211	15616.858398
933.851563	15481.740234
932.711914	15684.452148
931.571289	15922.157227
930.431641	16348.296875
929.291016	16524.373047
928.149414	16777.066406
927.008789	16633.097656
925.867188	16462.906250
924.725586	16584.046875
923.583984	16354.827148
922.441406	15968.106445
921.299805	15778.515625
920.157227	15363.651367
919.013672	15368.959961
917.871094	14886.575195
916.727539	14929.155273
915.583984	14617.587891
914.439453	14802.263672
913.295898	14853.570313
912.151367	14603.391602
911.006836	14637.245117
909.861328	14566.272461
908.716797	14582.652344
907.571289	14476.801758
906.424805	14294.625000
905.279297	14435.399414
904.132813	14436.521484
902.986328	14649.158203
901.839844	14469.281250
900.692383	14542.318359
899.545898	14451.886719
898.398438	14612.037109
897.250000	14713.304688
896.102539	14888.565430
894.954102	14676.211914
893.805664	14646.791992
892.656250	14756.660156
891.507813	14668.490234
890.358398	14765.250000
889.208984	14457.468750
888.058594	14280.278320
886.908203	14181.420898
885.758789	14128.244141
884.607422	14211.974609
883.457031	14354.316406
882.305664	14318.507813
881.154297	14239.288086
880.002930	14103.662109
878.850586	14165.593750
877.698242	14197.119141
876.545898	14213.443359
875.393555	14077.940430
874.240234	14081.271484
873.086914	14062.921875
871.933594	14040.244141
870.780273	13935.233398
869.625977	13966.752930
868.471680	14080.560547
867.317383	14021.082031
866.162109	13790.599609
865.007813	13932.504883
863.852539	14033.228516
862.696289	14090.637695
861.541016	13871.157227
860.384766	13926.411133
859.228516	13947.047852
858.072266	13991.449219
856.915039	13942.906250
855.757813	13890.062500
854.600586	13850.202148
853.442383	13795.241211
852.285156	13951.892578
851.126953	13853.759766
849.968750	13820.413086
848.809570	13918.694336
847.650391	13865.930664
846.491211	13964.154297
845.332031	13971.774414
844.171875	14067.771484
843.012695	14226.223633
841.851563	14072.175781
840.691406	14112.072266
839.530273	14011.958984
838.369141	14081.994141
837.208008	14018.527344
836.046875	14062.699219
834.884766	13928.255859
833.722656	14026.208008
832.560547	14005.821289
831.397461	13951.039063
830.234375	13790.939453
829.071289	14028.534180
827.908203	13670.796875
826.744141	13734.292969
825.580078	13643.115234
824.416016	13691.554688
823.251953	13911.721680
822.086914	13631.679688
820.921875	13907.550781
819.756836	13629.780273
818.590820	13766.104492
817.425781	13829.455078
816.259766	13804.874023
815.092773	14011.795898
813.926758	13710.738281
812.759766	13810.461914
811.592773	13884.433594
810.424805	13581.465820
809.257813	13576.236328
808.089844	13532.478516
806.920898	13674.923828
805.752930	13361.576172
804.583984	13516.828125
803.415039	13657.038086
802.246094	13538.471680
801.076172	13597.380859
799.906250	13771.667969
798.736328	13533.500977
797.566406	13538.963867
796.395508	13612.764648
795.224609	13737.775391
794.053711	13736.780273
792.881836	13776.333984
791.710938	13730.520508
790.538086	13989.779297
789.366211	13931.139648
788.194336	14132.661133
787.021484	14432.151367
785.848633	14183.761719
784.674805	14529.979492
783.500977	14198.595703
782.327148	14261.380859
781.153320	14347.560547
779.979492	13746.075195
778.804688	13964.289063
777.629883	14076.008789
776.454102	14128.107422
775.279297	13805.843750
774.103516	13796.312500
772.927734	13795.287109
771.750977	13787.885742
770.575195	13907.984375
769.398438	13804.956055
768.220703	13763.569336
767.043945	13928.182617
765.866211	14103.333984
764.688477	14121.335938
763.510742	14313.337891
762.332031	14267.633789
761.153320	14531.628906
759.974609	14793.381836
758.794922	15381.512695
757.616211	15806.162109
756.436523	16444.650391
755.255859	17657.003906
754.076172	18565.902344
752.895508	19834.390625
751.714844	21599.843750
750.533203	23231.132813
749.352539	25346.292969
748.170898	27435.093750
746.988281	28884.123047
745.806641	30171.759766
744.624023	30617.310547
743.441406	30502.490234
742.258789	30100.306641
741.075195	29573.646484
