#Wave		#Intensity
1585.210938	14656.185547
1584.209961	14453.876953
1583.208984	14350.997070
1582.208008	14632.636719
1581.206055	14375.003906
1580.204102	14494.309570
1579.202148	14468.851563
1578.200195	14323.665039
1577.198242	14627.462891
1576.195313	14696.745117
1575.192383	14446.894531
1574.189453	14281.890625
1573.186523	14348.708008
1572.182617	14300.889648
1571.178711	14263.054688
1570.174805	14265.082031
1569.170898	14416.500977
1568.166992	14411.025391
1567.162109	14348.308594
1566.158203	14387.638672
1565.153320	14399.586914
1564.147461	14436.401367
1563.142578	14498.069336
1562.136719	14567.168945
1561.130859	14758.042969
1560.125000	14789.781250
1559.119141	14843.868164
1558.113281	15074.311523
1557.106445	15222.697266
1556.099609	15549.811523
1555.092773	15938.856445
1554.084961	15923.144531
1553.078125	16187.867188
1552.070313	16077.826172
1551.062500	15952.946289
1550.054688	15974.444336
1549.045898	15976.096680
1548.038086	15908.332031
1547.029297	15738.973633
1546.020508	15542.426758
1545.011719	15331.093750
1544.001953	15295.718750
1542.992188	15371.800781
1541.982422	15173.012695
1540.972656	14845.581055
1539.962891	14904.381836
1538.952148	14604.358398
1537.942383	14549.381836
1536.931641	14588.417969
1535.919922	14506.263672
1534.909180	14384.583984
1533.897461	14235.762695
1532.886719	14351.442383
1531.874023	14089.027344
1530.862305	14266.448242
1529.850586	13991.808594
1528.837891	14275.357422
1527.825195	14289.683594
1526.812500	14247.231445
1525.799805	14032.048828
1524.786133	14233.929688
1523.772461	14026.238281
1522.758789	14070.193359
1521.745117	14106.732422
1520.731445	14148.185547
1519.716797	13948.075195
1518.702148	14270.467773
1517.687500	14016.211914
1516.672852	14037.941406
1515.657227	14160.632813
1514.642578	14179.860352
1513.626953	14285.238281
1512.610352	14095.229492
1511.594727	14215.343750
1510.579102	14168.117188
1509.562500	14251.270508
1508.545898	14260.614258
1507.529297	13960.165039
1506.511719	14161.298828
1505.494141	14087.093750
1504.477539	14214.403320
1503.458984	14366.224609
1502.441406	14272.373047
1501.423828	14352.906250
1500.405273	14683.823242
1499.386719	14310.141602
1498.368164	14496.139648
1497.348633	14375.365234
1496.330078	14786.951172
1495.310547	14612.209961
1494.291016	14633.702148
1493.271484	14804.727539
1492.250977	14804.111328
1491.231445	14854.954102
1490.210938	14638.725586
1489.190430	14523.015625
1488.168945	14755.107422
1487.148438	14756.946289
1486.126953	14646.177734
1485.105469	14753.277344
1484.083984	14610.743164
1483.061523	14842.572266
1482.040039	14778.347656
1481.017578	15000.262695
1479.995117	14972.704102
1478.971680	15140.708008
1477.949219	15137.569336
1476.925781	15354.335938
1475.902344	15602.770508
1474.878906	15926.815430
1473.855469	15840.488281
1472.831055	16157.023438
1471.806641	16102.414063
1470.782227	16470.009766
1469.757813	16647.142578
1468.733398	17260.843750
1467.708008	17513.341797
1466.682617	17816.939453
1465.657227	18256.927734
1464.631836	18959.964844
1463.605469	19433.648438
1462.579102	19870.587891
1461.552734	20287.859375
1460.526367	20736.617188
1459.500000	21092.664063
1458.472656	21054.205078
1457.445313	21171.523438
1456.417969	20882.435547
1455.390625	20153.132813
1454.362305	19723.300781
1453.334961	19349.578125
1452.306641	18937.107422
1451.277344	18208.808594
1450.249023	17638.779297
1449.219727	17460.173828
1448.191406	17041.146484
1447.162109	16787.447266
1446.131836	16878.662109
1445.102539	16311.921875
1444.072266	16310.960938
1443.041992	16356.106445
1442.011719	16304.183594
1440.981445	16101.887695
1439.950195	15989.407227
1438.918945	15770.285156
1437.887695	15662.766602
1436.856445	15867.949219
1435.825195	15685.334961
1434.792969	15791.095703
1433.760742	15356.663086
1432.728516	15598.060547
1431.696289	15267.958008
1430.663086	15112.280273
1429.629883	15060.734375
1428.596680	14970.494141
1427.563477	14921.416016
1426.530273	14886.870117
1425.496094	14857.172852
1424.461914	14663.087891
1423.427734	14662.454102
1422.393555	14618.320313
1421.358398	14359.166016
1420.323242	14392.413086
1419.288086	14691.310547
1418.252930	14796.911133
1417.217773	14289.276367
1416.181641	14450.428711
1415.145508	14799.737305
1414.109375	14733.927734
1413.073242	14870.762695
1412.036133	14566.212891
1411.000000	15197.304688
1409.962891	14994.057617
1408.924805	15352.452148
1407.887695	15580.577148
1406.849609	16032.653320
1405.812500	16424.324219
1404.773438	16868.810547
1403.735352	17729.626953
1402.697266	17576.691406
1401.658203	17991.777344
1400.619141	18283.976563
1399.580078	18304.220703
1398.540039	18646.738281
1397.500977	18513.001953
1396.460938	18646.175781
1395.420898	18594.214844
1394.380859	18443.748047
1393.339844	18151.587891
1392.298828	18027.697266
1391.257813	17730.941406
1390.216797	17532.753906
1389.175781	17641.921875
1388.133789	17818.248047
1387.091797	18059.285156
1386.049805	18336.208984
1385.007813	18622.609375
1383.964844	19033.589844
1382.922852	19549.890625
1381.879883	20394.375000
1380.835938	20965.294922
1379.792969	21200.523438
1378.749023	21682.398438
1377.706055	22267.058594
1376.661133	22686.246094
1375.617188	22633.623047
1374.573242	22674.371094
1373.528320	22719.886719
1372.483398	22612.257813
1371.438477	22700.820313
1370.392578	22007.300781
1369.347656	21579.476563
1368.301758	20974.929688
1367.255859	20963.373047
1366.208984	20160.869141
1365.163086	19659.722656
1364.116211	19605.449219
1363.069336	19548.808594
1362.022461	19114.953125
1360.974609	18853.148438
1359.927734	18765.671875
1358.879883	18473.027344
1357.832031	18764.972656
1356.783203	18310.263672
1355.735352	18854.882813
1354.686523	18757.953125
1353.637695	19180.685547
1352.588867	19393.527344
1351.539063	19918.398438
1350.490234	20235.806641
1349.440430	21436.648438
1348.390625	21636.927734
1347.339844	22365.613281
1346.290039	23132.072266
1345.239258	23722.119141
1344.188477	24514.140625
1343.137695	25272.527344
1342.085938	25747.601563
1341.034180	26117.859375
1339.982422	26606.816406
1338.930664	26753.335938
1337.878906	27256.205078
1336.826172	27476.167969
1335.773438	27648.531250
1334.720703	27512.125000
1333.667969	27446.996094
1332.614258	27163.521484
1331.561523	26699.806641
1330.507813	26165.107422
1329.453125	25791.933594
1328.399414	25300.335938
1327.344727	24640.593750
1326.290039	24258.486328
1325.235352	23698.781250
1324.180664	23099.027344
1323.125000	22987.560547
1322.070313	22549.269531
1321.014648	22018.804688
1319.958008	22028.378906
1318.902344	21424.863281
1317.845703	20932.830078
1316.789063	20942.623047
1315.732422	20245.085938
1314.675781	20344.890625
1313.618164	19770.730469
1312.560547	19515.970703
1311.502930	19336.951172
1310.445313	18947.687500
1309.386719	18539.683594
1308.329102	18342.083984
1307.270508	18187.074219
1306.210938	17772.400391
1305.152344	17851.279297
1304.092773	17311.761719
1303.033203	17022.593750
1301.973633	17042.595703
1300.914063	16937.580078
1299.853516	16537.837891
1298.792969	16428.253906
1297.732422	16365.859375
1296.671875	16350.624023
1295.611328	16493.257813
1294.549805	15872.587891
1293.488281	15913.987305
1292.426758	16009.524414
1291.364258	15897.852539
1290.302734	15990.997070
1289.240234	15877.020508
1288.177734	15796.028320
1287.114258	16074.956055
1286.051758	16092.724609
1284.988281	16094.027344
1283.924805	16158.796875
1282.861328	16460.910156
1281.796875	16842.783203
1280.732422	17142.273438
1279.667969	17352.382813
1278.603516	17846.537109
1277.539063	18124.490234
1276.473633	18132.392578
1275.408203	18933.488281
1274.342773	18915.404297
1273.277344	18995.847656
1272.210938	19416.316406
1271.145508	18973.738281
1270.079102	18861.884766
1269.011719	18848.515625
1267.945313	18427.421875
1266.877930	18191.583984
1265.810547	17691.169922
1264.743164	17247.167969
1263.674805	16889.978516
1262.607422	16788.085938
1261.539063	16110.525391
1260.470703	16057.973633
1259.401367	15647.531250
1258.333008	15513.240234
1257.263672	15603.481445
1256.194336	15324.310547
1255.125000	14970.461914
1254.054688	15023.369141
1252.985352	15134.659180
1251.915039	14946.916992
1250.843750	14768.593750
1249.773438	14830.833008
1248.702148	14647.939453
1247.630859	14831.534180
1246.559570	14662.715820
1245.488281	14617.609375
1244.416016	14553.861328
1243.343750	14723.325195
1242.271484	14629.272461
1241.199219	14570.220703
1240.125977	14383.023438
1239.053711	14382.293945
1237.980469	14609.842773
1236.906250	14485.632813
1235.833008	14678.134766
1234.758789	14728.551758
1233.684570	14648.612305
1232.610352	14666.435547
1231.536133	14698.208984
1230.460938	14729.966797
1229.385742	14659.392578
1228.310547	14784.139648
1227.235352	15011.107422
1226.159180	14935.867188
1225.083008	14825.805664
1224.006836	14850.520508
1222.930664	14728.909180
1221.853516	14681.651367
1220.777344	14620.483398
1219.700195	14914.447266
1218.622070	14932.149414
1217.544922	14664.486328
1216.466797	14717.024414
1215.388672	14702.288086
1214.310547	14803.480469
1213.232422	15004.301758
1212.153320	14957.064453
1211.074219	14747.657227
1209.995117	14946.041992
1208.916016	15192.976563
1207.835938	15171.206055
1206.755859	14894.791016
1205.675781	15148.518555
1204.595703	15274.864258
1203.514648	15303.987305
1202.434570	14916.750000
1201.353516	14906.621094
1200.271484	15282.607422
1199.190430	14955.719727
1198.108398	14945.584961
1197.026367	15030.186523
1195.944336	14726.660156
1194.862305	14887.486328
1193.779297	14357.828125
1192.696289	14537.129883
1191.613281	14328.595703
1190.530273	14403.983398
1189.446289	14160.958008
1188.362305	14024.139648
1187.278320	14044.193359
1186.194336	13909.761719
1185.109375	13945.964844
1184.024414	13576.538086
1182.939453	13520.629883
1181.854492	13437.101563
1180.768555	13477.977539
1179.683594	13539.557617
1178.597656	13212.047852
1177.510742	13223.020508
1176.424805	13256.999023
1175.337891	13362.282227
1174.250977	13306.506836
1173.164063	13395.634766
1172.077148	13321.480469
1170.989258	13226.668945
1169.901367	13306.560547
1168.813477	13209.493164
1167.724609	13149.221680
1166.636719	13447.262695
1165.547852	13074.677734
1164.458984	13067.272461
1163.369141	13344.478516
1162.280273	13318.658203
1161.190430	13246.962891
1160.100586	13248.697266
1159.010742	13238.963867
1157.919922	13332.408203
1156.829102	13267.644531
1155.738281	13413.750000
1154.647461	13532.296875
1153.555664	13371.315430
1152.464844	13542.494141
1151.373047	13592.239258
1150.280273	13493.156250
1149.188477	13764.902344
1148.095703	13830.582031
1147.002930	13665.161133
1145.910156	13566.143555
1144.817383	13878.797852
1143.723633	13622.017578
1142.629883	13790.513672
1141.536133	13716.689453
1140.441406	13725.149414
1139.347656	13788.430664
1138.252930	13712.366211
1137.158203	13618.067383
1136.062500	13553.485352
1134.967773	13404.481445
1133.872070	13479.166992
1132.776367	13519.597656
1131.679688	13263.491211
1130.583984	13561.635742
1129.487305	13613.418945
1128.390625	13407.602539
1127.292969	13577.898438
1126.196289	13486.098633
1125.098633	13469.509766
1124.000977	13409.655273
1122.903320	13315.671875
1121.804688	13271.809570
1120.706055	13412.319336
1119.607422	13366.176758
1118.508789	13281.378906
1117.409180	13496.850586
1116.310547	13218.768555
1115.210938	13400.054688
1114.110352	13308.499023
1113.010742	13151.079102
1111.910156	13211.841797
1110.809570	13215.788086
1109.708984	13321.927734
1108.607422	13164.636719
1107.506836	13223.068359
1106.405273	13240.622070
1105.303711	13119.752930
1104.201172	12862.821289
1103.098633	13075.492188
1101.996094	13011.424805
1100.893555	12938.314453
1099.791016	12908.300781
1098.687500	12678.881836
1097.583984	13029.559570
1096.480469	12836.453125
1095.376953	12822.335938
1094.272461	12833.128906
1093.167969	12871.080078
1092.063477	12870.540039
1090.958008	12858.685547
1089.853516	12932.797852
1088.748047	12792.017578
1087.642578	12748.528320
1086.536133	12709.578125
1085.430664	12715.847656
1084.324219	12717.594727
1083.217773	13010.776367
1082.110352	12847.569336
1081.003906	12819.925781
1079.896484	12679.406250
1078.789063	12895.590820
1077.680664	12750.600586
1076.573242	12691.410156
1075.464844	12708.940430
1074.356445	12830.203125
1073.247070	12890.534180
1072.138672	12804.308594
1071.029297	12578.385742
1069.919922	12794.205078
1068.809570	12786.902344
1067.700195	12894.469727
1066.589844	12738.525391
1065.479492	12848.304688
1064.368164	12669.928711
1063.257813	12808.927734
1062.146484	12878.119141
1061.035156	12695.351563
1059.922852	12852.240234
1058.811523	12968.589844
1057.699219	12642.054688
1056.586914	12911.217773
1055.473633	12870.191406
1054.361328	12770.776367
1053.248047	12909.468750
1052.134766	12915.620117
1051.021484	12811.766602
1049.907227	12838.133789
1048.792969	12794.926758
1047.678711	12686.677734
1046.564453	12544.830078
1045.449219	12696.806641
1044.333984	12720.922852
1043.218750	12931.069336
1042.103516	13017.869141
1040.987305	13048.617188
1039.871094	12897.910156
1038.754883	13069.757813
1037.638672	13060.167969
1036.521484	13162.507813
1035.404297	13070.092773
1034.287109	12901.640625
1033.169922	13028.551758
1032.051758	13054.760742
1030.933594	13342.577148
1029.815430	13420.121094
1028.697266	13459.633789
1027.578125	13266.731445
1026.458984	13543.071289
1025.339844	13274.290039
1024.220703	13512.541992
1023.100586	13451.517578
1021.980469	13390.518555
1020.860352	13900.842773
1019.740234	13656.815430
1018.619141	13783.182617
1017.498047	13842.586914
1016.376953	13663.390625
1015.255859	13823.106445
1014.133789	13577.129883
1013.011719	13794.724609
1011.889648	13776.086914
1010.767578	13661.685547
1009.644531	13692.069336
1008.521484	13933.930664
1007.398438	13568.058594
1006.274414	13758.657227
1005.151367	13664.402344
1004.027344	13487.890625
1002.902344	13547.174805
1001.778320	13437.462891
1000.653320	13607.868164
999.528320	13560.413086
998.403320	13406.331055
997.278320	13461.119141
996.152344	13291.580078
995.026367	13404.094727
993.900391	13412.226563
992.773438	13231.709961
991.646484	13211.029297
990.519531	13126.024414
989.392578	13225.138672
988.265625	13310.903320
987.137695	13363.375977
986.009766	13391.443359
984.881836	13395.122070
983.752930	13482.984375
982.624023	13278.436523
981.495117	13259.990234
980.366211	13214.984375
979.236328	13296.163086
978.106445	13310.916016
976.976563	13385.397461
975.846680	13223.164063
974.715820	13297.629883
973.585938	13093.476563
972.454102	13088.357422
971.323242	13036.830078
970.191406	13086.961914
969.060547	13316.000977
967.927734	13096.604492
966.795898	13142.269531
965.663086	13254.140625
964.530273	13432.171875
963.397461	13418.150391
962.264648	13874.030273
961.130859	13632.739258
959.997070	13865.650391
958.863281	13730.288086
957.729492	13852.865234
956.594727	13964.369141
955.459961	13948.040039
954.325195	13821.584961
953.189453	13494.789063
952.053711	13328.859375
950.917969	13191.617188
949.782227	13274.502930
948.646484	13304.545898
947.509766	13105.806641
946.373047	13041.305664
945.235352	12994.421875
944.098633	13110.226563
942.960938	12993.019531
941.823242	13091.192383
940.685547	13103.647461
939.546875	13010.674805
938.408203	12985.811523
937.269531	13031.208008
936.129883	13311.424805
934.991211	13200.930664
933.851563	13421.749023
932.711914	13346.370117
931.571289	13371.893555
930.431641	13441.250977
929.291016	13460.163086
928.149414	13516.319336
927.008789	13692.947266
925.867188	13411.706055
924.725586	13505.059570
923.583984	13252.445313
922.441406	13376.435547
921.299805	13480.672852
920.157227	13070.699219
919.013672	13091.833984
917.871094	12826.466797
916.727539	12550.286133
915.583984	12650.213867
914.439453	12765.394531
913.295898	12583.364258
912.151367	12373.015625
911.006836	12429.208984
909.861328	12583.634766
908.716797	12275.188477
907.571289	12593.267578
906.424805	12474.792969
905.279297	12465.449219
904.132813	12427.753906
902.986328	12586.326172
901.839844	12555.159180
900.692383	12434.640625
899.545898	12449.281250
898.398438	12631.666992
897.250000	12485.072266
896.102539	12654.300781
894.954102	12514.294922
893.805664	12467.948242
892.656250	12595.715820
891.507813	12558.072266
890.358398	12566.124023
889.208984	12495.880859
888.058594	12486.546875
886.908203	12607.639648
885.758789	12361.399414
884.607422	12263.015625
883.457031	12331.939453
882.305664	12201.027344
881.154297	12250.390625
880.002930	11895.961914
878.850586	12366.409180
877.698242	12244.282227
876.545898	12054.960938
875.393555	12149.841797
874.240234	12157.944336
873.086914	12033.802734
871.933594	12291.173828
870.780273	12019.708008
869.625977	12001.832031
868.471680	12053.271484
867.317383	11894.641602
866.162109	12026.182617
865.007813	12146.840820
863.852539	11836.817383
862.696289	12059.145508
861.541016	12104.006836
860.384766	12027.749023
859.228516	11921.255859
858.072266	12143.359375
856.915039	11907.224609
855.757813	12083.857422
854.600586	11891.041992
853.442383	11946.662109
852.285156	11943.959961
851.126953	11930.465820
849.968750	12204.002930
848.809570	12086.889648
847.650391	12019.441406
846.491211	12055.540039
845.332031	11828.573242
844.171875	12123.375977
843.012695	11941.751953
841.851563	12003.688477
840.691406	11951.423828
839.530273	11782.881836
838.369141	12111.806641
837.208008	11842.125000
836.046875	11839.441406
834.884766	11914.220703
833.722656	11958.847656
832.560547	12061.524414
831.397461	12123.297852
830.234375	11890.520508
829.071289	11804.000000
827.908203	11840.000977
826.744141	11622.481445
825.580078	11972.090820
824.416016	11898.510742
823.251953	12063.265625
822.086914	12094.869141
820.921875	11909.721680
819.756836	12020.724609
818.590820	12155.268555
817.425781	12010.975586
816.259766	11939.639648
815.092773	12138.412109
813.926758	11989.931641
812.759766	11946.499023
811.592773	12119.427734
810.424805	12114.530273
809.257813	11996.160156
808.089844	11794.362305
806.920898	11828.060547
805.752930	11876.718750
804.583984	11771.340820
803.415039	11954.719727
802.246094	11875.027344
801.076172	11919.351563
799.906250	11835.427734
798.736328	11689.578125
797.566406	11693.324219
796.395508	11814.530273
795.224609	11929.274414
794.053711	11962.845703
792.881836	12239.702148
791.710938	12322.261719
790.538086	12417.583008
789.366211	12355.035156
788.194336	12422.583008
787.021484	12315.293945
785.848633	12553.321289
784.674805	12250.014648
783.500977	12085.316406
782.327148	12231.647461
781.153320	11977.593750
779.979492	11676.819336
778.804688	12018.952148
777.629883	12022.591797
776.454102	12124.090820
775.279297	11942.661133
774.103516	12022.865234
772.927734	11971.222656
771.750977	12002.496094
770.575195	11970.003906
769.398438	11931.153320
768.220703	12015.510742
767.043945	12040.371094
765.866211	12012.142578
764.688477	12215.284180
763.510742	12216.736328
762.332031	12084.526367
761.153320	12181.454102
759.974609	12329.231445
758.794922	12279.768555
757.616211	12567.350586
756.436523	12608.977539
755.255859	12993.809570
754.076172	13120.044922
752.895508	13339.400391
751.714844	13577.709961
750.533203	13881.527344
749.352539	14318.528320
748.170898	14890.737305
746.988281	15494.412109
745.806641	16732.246094
744.624023	18115.400391
743.441406	20290.603516
742.258789	22988.916016
741.075195	26710.726563
